# RBHG Variable-Width Bremsstrahlung Distribution
# SOURCE: ../../../../hdsim_cobrems/BGRate_50699.root : dRtdkH1
# GENERATED: 2025-11-17 12:54:03
#
# ENERGY_LIMITS (GeV):
# E_MIN_AVAILABLE 2.910323
# E_MAX_AVAILABLE 11.418555
# TOTAL_BINS 649
# TOTAL_COUNTS 15234544480.08
#
# WARNING: User-set E_LO must be >= E_MIN_AVAILABLE
# WARNING: User-set E_HI must be <= E_MAX_AVAILABLE
#
# Format: lowEdge(GeV)  highEdge(GeV)  counts
2.910323  2.935753  24997255.1379
2.935753  2.968407  26651112.9632
2.968407  2.993860  28197203.4251
2.993860  3.026595  29613825.1278
3.026595  3.052048  30883092.2299
3.052048  3.084702  31991519.0537
3.084702  3.110155  32930374.6637
3.110155  3.142983  33695793.9374
3.142983  3.168378  34288649.2307
3.168378  3.201195  34714203.2063
3.201195  3.226532  34981577.3034
3.226532  3.259441  35103080.5729
3.259441  3.284743  35093449.5291
3.284743  3.317583  34969051.1019
3.317583  3.342862  34747097.9905
3.342862  3.375865  34444919.4175
3.375865  3.401073  34079321.3905
3.401073  3.434158  33666060.2066
3.434158  3.459331  33219442.1666
3.459331  3.492451  32752052.2908
3.492451  3.517601  32274606.0246
3.517601  3.550779  31795911.0177
3.550779  3.575906  31322921.3172
3.575906  3.607385  30860863.7407
3.607385  3.631535  30413415.5956
3.631535  3.665771  29982913.9464
3.665771  3.689793  29570578.8701
3.689793  3.724099  29176736.1475
3.724099  3.748028  28801028.1777
3.748028  3.782264  28442605.2381
3.782264  3.806135  28100292.2607
3.806135  3.840592  27772728.8875
3.840592  3.864439  27458482.6185
3.864439  3.898838  27156136.3533
3.898838  3.922581  26864352.6124
3.922581  3.957271  26581917.2684
3.957271  3.980944  26307765.8412
3.980944  4.015669  26040995.3947
4.015669  4.039260  25780864.9175
4.039260  4.074066  25526786.8424
4.074066  4.097577  25278312.1005
4.097577  4.174343  25035110.8538
4.174343  4.198563  24796950.7969
4.198563  4.232496  24563674.6820
4.232496  4.256623  24335178.4701
4.256623  4.290696  24111391.2558
4.290696  4.314742  23892257.8420
4.314742  4.348943  23677724.5512
4.348943  4.372883  23467728.5756
4.372883  4.406479  23262190.8930
4.406479  4.429873  23061012.5272
4.429873  4.464726  22864073.7377
4.464726  4.488039  22671235.5804
4.488039  4.523449  22482343.2068
4.523449  4.547076  22297230.2609
4.547076  4.581533  22115723.7749
4.581533  4.605032  21937649.0535
4.605032  4.639582  21762834.1513
4.639582  4.662976  21591113.6714
4.662976  4.697677  21422331.7331
4.697677  4.720955  21256344.0611
4.720955  4.754516  21093019.2298
4.754516  4.776828  20932239.1557
4.776828  4.812460  20773898.9634
4.812460  4.835005  20617906.3643
4.835005  4.872475  20464180.6884
4.872475  4.894659  20312651.6971
4.894659  4.929441  20163258.2883
4.929441  4.951719  20015947.1865
4.951719  4.987909  19870671.6900
4.987909  5.011268  19727390.5272
5.011268  5.045667  19586066.8579
5.045667  5.066595  19446667.4344
5.066595  5.104902  19309161.9249
5.104902  5.127633  19173522.3848
5.127633  5.160973  19039722.8504
5.160973  5.182936  18907739.0201
5.182936  5.221104  18777547.9844
5.221104  5.242579  18649127.9615
5.242579  5.277908  18522458.0036
5.277908  5.299522  18397517.6453
5.299522  5.336411  18274286.4804
5.336411  5.359025  18152743.6727
5.359025  5.394110  18032867.4237
5.394110  5.414363  17914634.4411
5.414363  5.452182  17798019.4684
5.452182  5.473482  17682994.9418
5.473482  5.509568  17569530.8410
5.509568  5.530798  17457594.7895
5.530798  5.568617  17347152.4337
5.568617  5.588533  17238168.1002
5.588533  5.621338  17130605.6975
5.621338  5.643464  17024429.7904
5.643464  5.678793  16919606.7553
5.678793  5.700373  16816105.9087
5.700373  5.737808  16713900.5069
5.737808  5.758200  16612968.5316
5.758200  5.795170  16513293.2098
5.795170  5.816994  16414863.2492
5.816994  5.853417  16317672.8126
5.853417  5.874112  16221721.2785
5.874112  5.911686  16127012.8627
5.911686  5.931683  16033556.1757
5.931683  5.968979  15941363.7921
5.968979  5.990360  15850451.8925
5.990360  6.026423  15760840.0241
6.026423  6.047095  15672551.0069
6.047095  6.085332  15585611.0016
6.085332  6.104992  15500049.7410
6.104992  6.144021  15415900.9209
6.144021  6.164099  15333202.7405
6.164099  6.201406  15251998.5771
6.201406  6.220764  15172337.7721
6.220764  6.255861  15094276.5056
6.255861  6.281674  15017878.7274
6.281674  6.314526  14943217.1199
6.314526  6.340735  14870374.0698
6.340735  6.367654  14799442.6418
6.367654  6.400691  14730527.5602
6.400691  6.431298  14663746.2258
6.431298  6.455355  14599229.8100
6.455355  6.483553  14537124.4779
6.483553  6.517091  14477592.7937
6.517091  6.546151  14420815.3494
6.546151  6.570754  14366992.6343
6.570754  6.603757  14316347.1261
6.603757  6.628547  14269125.5444
6.628547  6.659177  14225601.1601
6.659177  6.690505  14186076.0165
6.690505  6.715783  14150882.8913
6.715783  6.747344  14120386.8285
6.747344  6.776391  14094986.0928
6.776391  6.805288  14075112.4584
6.805288  6.833544  14061230.8254
6.833544  6.864197  14053838.2593
6.864197  6.891756  14053462.6395
6.891756  6.921117  14060661.1719
6.921117  6.950805  14076019.0372
6.950805  6.978980  14100148.3895
6.978980  7.022732  14133687.7893
7.022732  7.047277  14177301.9356
7.047277  7.079803  14231681.2708
7.079803  7.104419  14297540.6733
7.104419  7.138597  14375616.0350
7.138597  7.161595  14466657.0786
7.161595  7.196296  14571414.3246
7.196296  7.220318  14690617.7742
7.220318  7.253368  14824944.7580
7.253368  7.277297  14974974.7291
7.277297  7.312184  15141129.7871
7.312184  7.334531  15323601.6169
7.334531  7.369768  15522268.3779
7.369768  7.393185  15736608.6843
7.393185  7.426874  15965623.6263
7.426874  7.450129  16207780.8723
7.450129  7.485761  16460996.1502
7.485761  7.507514  16722665.7613
7.507514  7.545647  16989758.6469
7.545647  7.567238  17258968.1189
7.567238  7.600648  17526912.9178
7.600648  7.623193  17790366.8983
7.623193  7.644900  18046488.9090
7.644900  7.659930  18293021.6061
7.659930  7.665328  18528431.2467
7.665328  7.674343  18751969.6605
7.674343  7.680404  18963652.7131
7.680404  7.692956  19164163.6574
7.692956  7.695864  19354701.5595
7.695864  7.708288  19536801.8977
7.708288  7.714105  19712157.2840
7.714105  7.723842  19882461.5007
7.723842  7.730286  20049291.5357
7.730286  7.742955  20214032.5762
7.742955  7.745712  20377842.4485
7.745712  7.757263  20541646.4564
7.757263  7.762580  20706151.5350
7.762580  7.771560  20871869.6139
7.771560  7.777679  21039142.8453
7.777679  7.790313  21208166.5125
7.790313  7.793221  21379007.8648
7.793221  7.805668  21551620.3382
7.805668  7.811357  21725852.7913
7.811357  7.820803  21901453.2091
7.820803  7.826945  22078066.6554
7.826945  7.838974  22255228.6766
7.838974  7.841649  22432357.8514
7.841649  7.853038  22608753.9695
7.853038  7.858308  22783610.0664
7.858308  7.867323  22956045.8546
7.867323  7.873489  23125166.2179
7.873489  7.886169  23290141.8061
7.886169  7.889042  23450301.1665
7.889042  7.895740  23605217.8608
7.895740  7.901315  23754774.1501
7.901315  7.906718  23899186.2935
7.906718  7.906829  24038984.6729
7.906829  7.915845  24174952.3331
7.915845  7.917667  24308034.8043
7.917667  7.921742  24439239.3737
7.921742  7.928587  24569541.9959
7.928587  7.935923  24699815.4410
7.935923  7.936051  24830785.1665
7.936051  7.939479  24963012.2962
7.939479  7.950342  25096897.9001
7.950342  7.955118  25232700.3118
7.955118  7.955257  25370557.3120
7.955257  7.961177  25510506.9504
7.961177  7.971983  25652503.7654
7.971983  7.975080  25796430.4635
7.975080  7.975859  25942107.9203
7.975859  7.982762  26089307.8502
7.982762  7.993512  26237771.9636
7.993512  7.996554  26387238.8243
7.996554  7.999009  26537475.7364
7.999009  8.004235  26688309.3481
8.004235  8.014931  26839646.9066
8.014931  8.017785  26991481.2232
8.017785  8.017913  27143876.2902
8.017913  8.025598  27296935.9405
8.025598  8.036239  27450763.2024
8.036239  8.037165  27605421.3470
8.037165  8.039247  27760907.8405
8.039247  8.046852  27917149.1330
8.046852  8.057438  28074018.0980
8.057438  8.059745  28231368.7010
8.059745  8.060187  28389076.4914
8.060187  8.067997  28547071.0736
8.067997  8.078530  28705349.0129
8.078530  8.079672  28863962.2183
8.079672  8.079754  29022985.5590
8.079754  8.089036  29182475.2688
8.089036  8.099169  29342433.7590
8.099169  8.099515  29502795.2387
8.099515  8.101624  29663440.2115
8.101624  8.109968  29824237.2285
8.109968  8.120225  29985100.1119
8.120225  8.120395  30146041.5212
8.120395  8.121190  30307202.1404
8.121190  8.130796  30468840.3336
8.130796  8.139280  30631278.9097
8.139280  8.139315  30794820.1437
8.139315  8.141171  30959652.2240
8.141171  8.151520  31125775.0446
8.151520  8.159533  31292968.8048
8.159533  8.161843  31460817.3762
8.161843  8.162627  31628784.4859
8.162627  8.172141  31796328.2519
8.172141  8.181287  31963029.7251
8.181287  8.182414  32128704.3060
8.182414  8.182683  32293463.7858
8.182683  8.192661  32457705.5151
8.192661  8.199294  32622025.3825
8.199294  8.199364  32787077.6787
8.199364  8.202884  32953426.4637
8.202884  8.213081  33121438.9429
8.213081  8.218233  33291258.0134
8.218233  8.221769  33462863.9842
8.221769  8.223254  33636203.6804
8.223254  8.233402  33811335.6619
8.233402  8.240184  33988519.8023
8.240184  8.242197  34168181.6859
8.242197  8.243526  34350724.6248
8.243526  8.253625  34536243.4265
8.253625  8.259286  34724274.4207
8.259286  8.263700  34913732.4705
8.263700  8.273751  35103104.5683
8.273751  8.277747  35290830.9935
8.277747  8.281563  35475702.5017
8.281563  8.283778  35657107.5285
8.283778  8.293781  35835065.1099
8.293781  8.298152  36010094.8623
8.298152  8.300537  36183026.2989
8.300537  8.303760  36354821.4772
8.303760  8.313716  36526423.3150
8.313716  8.316602  36698605.4571
8.316602  8.319382  36871816.7893
8.319382  8.323649  37046065.6248
8.323649  8.333559  37220919.3980
8.333559  8.338867  37395657.2465
8.338867  8.340729  37569520.8970
8.340729  8.343445  37741944.5446
8.343445  8.353308  37912672.0170
8.353308  8.357073  38081761.9962
8.357073  8.359818  38249547.0611
8.359818  8.363149  38416593.7273
8.363149  8.372967  38583641.8476
8.372967  8.374360  38751464.6471
8.374360  8.377326  38920639.0964
8.377326  8.382762  39091321.9523
8.382762  8.392535  39263183.5802
8.392535  8.395601  39435570.7653
8.395601  8.397509  39607801.0552
8.397509  8.402286  39779400.9405
8.402286  8.412014  39950178.4582
8.412014  8.413761  40120168.4997
8.413761  8.417157  40289554.9889
8.417157  8.421721  40458632.5043
8.421721  8.431405  40627791.2748
8.431405  8.432106  40797449.4386
8.432106  8.435584  40967866.6790
8.435584  8.441068  41138899.6279
8.441068  8.450710  41309907.1760
8.450710  8.453185  41479967.3052
8.453185  8.455081  41648304.1796
8.455081  8.460330  41814637.2049
8.460330  8.469564  41979267.9746
8.469564  8.469928  42142945.3147
8.469928  8.473252  42306639.1947
8.473252  8.479506  42471332.1693
8.479506  8.487095  42637895.9413
8.487095  8.489063  42807003.2414
8.489063  8.491295  42978911.7243
8.491295  8.498598  43153135.9655
8.498598  8.508113  43328382.6772
8.508113  8.510035  43503038.9886
8.510035  8.511780  43675877.2409
8.511780  8.517607  43846343.6511
8.517607  8.527081  44014341.2204
8.527081  8.528567  44179986.8089
8.528567  8.530335  44343607.7999
8.530335  8.536535  44505791.5933
8.536535  8.545179  44667371.0636
8.545179  8.545968  44829385.3579
8.545968  8.547249  44992821.8423
8.547249  8.555381  45158039.0947
8.555381  8.564641  45324474.9030
8.564641  8.564775  45491215.7783
8.564775  8.566293  45657785.9552
8.566293  8.574148  45824098.5636
8.574148  8.583091  45989898.7002
8.583091  8.583502  46154853.2174
8.583502  8.584975  46319123.1863
8.584975  8.592837  46483270.8429
8.592837  8.600843  46647658.3872
8.600843  8.602152  46812489.0872
8.602152  8.603053  46978185.6652
8.603053  8.611448  47144858.1018
8.611448  8.620398  47311508.3253
8.620398  8.620724  47476736.1881
8.620724  8.622015  47640268.6042
8.622015  8.629982  47802989.0107
8.629982  8.637661  47965808.5035
8.637661  8.639221  48129731.7793
8.639221  8.639290  48296608.4139
8.639290  8.648441  48467994.2197
8.648441  8.657643  48643261.0893
8.657643  8.658496  48820781.5887
8.658496  8.660927  49001140.5344
8.660927  8.666826  49186689.4241
8.666826  8.675991  49376870.1199
8.675991  8.683309  49566463.2105
8.683309  8.685135  49750753.9650
8.685135  8.685138  49930885.2697
8.685138  8.694267  50111335.7526
8.694267  8.703378  50293101.4214
8.703378  8.705703  50472895.6375
8.705703  8.707308  50649009.7859
8.707308  8.712471  50823894.0529
8.712471  8.721547  50999760.0897
8.721547  8.725537  51175701.5061
8.725537  8.727852  51351640.7694
8.727852  8.730605  51531310.4289
8.730605  8.739646  51717055.7529
8.739646  8.748670  51904208.8208
8.748670  8.749036  52086181.0304
8.749036  8.750827  52264302.8504
8.750827  8.757676  52446420.4613
8.757676  8.766666  52634895.3706
8.766666  8.771825  52822442.2601
8.771825  8.773488  53002825.2938
8.773488  8.775639  53179745.6235
8.775639  8.784595  53359707.6064
8.784595  8.792264  53540856.2044
8.792264  8.793535  53717178.4010
8.793535  8.794497  53891257.5660
8.794497  8.802458  54072345.5732
8.802458  8.811365  54261174.7846
8.811365  8.814541  54447639.8964
8.814541  8.816228  54626917.4264
8.816228  8.820256  54807460.3775
8.820256  8.829131  54996497.9666
8.829131  8.836074  55186391.0412
8.836074  8.837702  55365887.2439
8.837702  8.837990  55539414.1467
8.837990  8.846833  55721044.6379
8.846833  8.855661  55911284.0673
8.855661  8.856815  56096979.5922
8.856815  8.859247  56275815.2360
8.859247  8.864473  56462289.7026
8.864473  8.873271  56659192.8819
8.873271  8.879860  56805673.0582
8.879860  8.881477  56605077.6495
8.881477  8.882052  55035930.0825
8.882052  8.890819  50073953.5752
8.890819  8.900172  40378189.7653
8.900172  8.901696  28192826.2258
8.901696  8.919587  18269692.5989
8.919587  8.921937  13018534.1412
8.921937  8.942818  11211115.3133
8.942818  8.944563  10810890.7111
8.944563  8.963990  10761370.9000
8.963990  8.965479  10767578.5327
8.965479  8.982464  10780084.3099
8.982464  8.984639  10794000.1076
8.984639  9.004113  10809251.5405
9.004113  9.005788  10825793.6917
9.005788  9.025203  10843403.1888
9.025203  9.026774  10861904.1416
9.026774  9.044665  10881390.9606
9.044665  9.046899  10902279.8917
9.046899  9.065674  10924870.4854
9.065674  9.070700  10948770.8670
9.070700  9.085218  10973160.5503
9.085218  9.090302  10997611.9395
9.090302  9.104052  11022493.1333
9.104052  9.106274  11049151.6192
9.106274  9.126027  11078898.2082
9.126027  9.131029  11111009.8208
9.131029  9.145733  11143340.2716
9.145733  9.150142  11174677.9012
9.150142  9.163229  11205477.2329
9.163229  9.165241  11237849.3759
9.165241  9.183843  11274126.0199
9.183843  9.188531  11314026.8461
9.188531  9.204235  11355163.2113
9.204235  9.208586  11395746.2517
9.208586  9.222534  11435482.9966
9.222534  9.224605  11476033.4880
9.224605  9.242275  11519730.8746
9.242275  9.246172  11566245.5872
9.246172  9.260993  11613385.1213
9.260993  9.264762  11660647.7412
9.264762  9.278803  11709904.5772
9.278803  9.284294  11763627.8566
9.284294  9.302941  11820489.6807
9.302941  9.303430  11875340.3913
9.303430  9.318425  11927014.7151
9.318425  9.321671  11978602.3148
9.321671  9.334897  12032446.8360
9.334897  9.339667  12090974.0015
9.339667  9.357233  12153426.2080
9.357233  9.357744  12214826.5802
9.357744  9.373496  12274713.3622
9.373496  9.376602  12336207.9226
9.376602  9.390922  12400436.1864
9.390922  9.395435  12468704.5569
9.395435  9.412268  12539489.4332
9.412268  9.412699  12608533.0667
9.412699  9.429985  12676270.5914
9.429985  9.430381  12744308.0636
9.430381  9.446958  12813258.1518
9.446958  9.448052  12884842.3263
9.448052  9.465710  12959514.6973
9.465710  9.466187  13035831.4046
9.466187  9.484114  13113041.8422
9.484114  9.484509  13189287.9186
9.484509  9.500191  13263073.4753
9.500191  9.501214  13337102.8377
9.501214  9.517349  13412846.7970
9.517349  9.517791  13490208.7222
9.517791  9.535078  13570239.9417
9.535078  9.535462  13651580.4087
9.535462  9.551969  13733146.2184
9.551969  9.553063  13816587.8569
9.553063  9.569849  13901538.9622
9.569849  9.570314  13985887.3435
9.570314  9.586682  14069147.5126
9.586682  9.587043  14150872.6333
9.587043  9.602026  14230567.6640
9.602026  9.603026  14312032.9463
9.603026  9.619045  14396901.9084
9.619045  9.619522  14483651.3502
9.619522  9.636646  14573315.2922
9.636646  9.637041  14663190.6029
9.637041  9.652804  14750691.8360
9.652804  9.653839  14838455.4747
9.653839  9.669207  14925616.0350
9.669207  9.669649  15011385.4691
9.669649  9.685214  15097323.5341
9.685214  9.685551  15182816.4678
9.685551  9.700395  15267265.4279
9.700395  9.701442  15354178.3712
9.701442  9.716960  15443758.8800
9.716960  9.717426  15533114.7952
9.717426  9.733316  15623231.6702
9.733316  9.733642  15712293.8946
9.733642  9.748241  15798455.2840
9.748241  9.749428  15896341.2141
9.749428  9.773520  16027597.2377
9.773520  9.774171  16168746.8835
9.774171  9.798926  16312665.1673
9.798926  9.799566  16455869.2880
9.799566  9.822251  16592766.7098
9.822251  9.823495  16731855.7006
9.823495  9.847750  16877464.5103
9.847750  9.848390  17021084.7831
9.848390  9.870574  17157226.4760
9.870574  9.871784  17295586.0509
9.871784  9.895527  17440853.1251
9.895527  9.896143  17582146.8937
9.896143  9.915512  17706872.0012
9.915512  9.917886  17836962.0130
9.917886  9.938825  17977489.8145
9.938825  9.942943  18126542.4835
9.942943  9.962068  18268526.8943
9.962068  9.964231  18402243.8847
9.964231  9.984903  18543769.0431
9.984903  9.988800  18694592.6563
9.988800  10.007611  18837807.9079
10.007611  10.009577  18972375.3941
10.009577  10.029900  19115506.5813
10.029900  10.033599  19269029.2065
10.033599  10.052107  19414756.9526
10.052107  10.053899  19550705.5523
10.053899  10.073896  18916322.5639
10.073896  10.077374  11108143.4941
10.077374  10.095556  10329295.1607
10.095556  10.097185  10359293.1139
10.097185  10.116845  10393115.0514
10.116845  10.120125  10430271.9305
10.120125  10.137994  10465887.4952
10.137994  10.139459  10500074.3816
10.139459  10.163970  10545260.6415
10.163970  10.164319  10590528.6076
10.164319  10.187911  10635404.4652
10.187911  10.189726  10683929.2503
10.189726  10.214946  10736549.7135
10.214946  10.215295  10787626.6157
10.215295  10.238177  10835226.8088
10.238177  10.239945  10886311.1169
10.239945  10.264433  10941485.2463
10.264433  10.264782  10994666.7378
10.264782  10.286989  11043836.8408
10.286989  10.288711  11096433.9811
10.288711  10.312501  11153087.5360
10.312501  10.312849  11207413.5419
10.312849  10.334394  11257301.8869
10.334394  10.336081  11310578.0810
10.336081  10.359161  11367829.9379
10.359161  10.359521  11422547.1737
10.359521  10.380402  11472581.2124
10.380402  10.382054  11525981.4302
10.382054  10.404425  11583282.0134
10.404425  10.404762  11637890.6622
10.404762  10.425015  11687785.5133
10.425015  10.426609  11741055.5667
10.426609  10.448328  11798321.3093
10.448328  10.448677  11852968.2976
10.448677  10.468267  11902722.3564
10.468267  10.469825  11955883.3920
10.469825  10.490869  12013184.2056
10.490869  10.491207  12067882.5401
10.491207  10.510180  12117718.7263
10.510180  10.511716  12171126.3478
10.511716  10.532097  12228792.2080
10.532097  10.532446  12283393.3037
10.532446  10.550826  9678591.3925
10.550826  10.552303  9693903.7161
10.552303  10.572068  9711428.3713
10.572068  10.572405  9728308.2162
10.572405  10.590204  9743761.3772
10.590204  10.591646  9760369.9310
10.591646  10.610794  9778369.7929
10.610794  10.611143  9795590.4248
10.611143  10.628383  9811258.7791
10.628383  10.629779  9827985.3893
10.629779  10.648322  9846005.3187
10.648322  10.648660  9863168.8053
10.648660  10.665330  9878700.6240
10.665330  10.666633  9895176.6972
10.666633  10.695227  9922701.4832
10.695227  10.696064  9949916.0033
10.696064  10.721482  9974281.9166
10.721482  10.723216  9999570.0234
10.723216  10.750332  10026562.9000
10.750332  10.751146  10052858.1380
10.751146  10.775203  10076459.2679
10.775203  10.776855  10101111.0735
10.776855  10.802541  9236603.7811
10.802541  10.803332  9242144.0662
10.803332  10.826121  9247356.4088
10.826121  10.829250  9253451.5288
10.829250  10.852796  9260222.5243
10.852796  10.853494  9266930.8550
10.853494  10.874352  9273452.3370
10.874352  10.877318  9281419.8482
10.877318  10.899630  9290962.1336
10.899630  10.900282  9300841.9542
10.900282  10.920023  9310802.1719
10.920023  10.922838  9323395.1338
10.922838  10.944615  9339413.2964
10.944615  10.945208  9028218.0336
10.945208  10.964438  9039018.2693
10.964438  10.965950  9053068.4730
10.965950  10.986517  9071633.4326
10.986517  10.987110  9093508.9938
10.987110  11.005246  9116740.8165
11.005246  11.006677  9145479.9572
11.006677  11.026081  9181843.8462
11.026081  11.026651  9223111.7351
11.026651  11.043740  9265550.6995
11.043740  11.045101  9316651.7534
11.045101  11.063411  9379693.0649
11.063411  11.063958  9449484.9373
11.063958  11.080058  9519609.5705
11.080058  11.081291  9602033.2164
11.081291  11.103859  9732674.3641
11.103859  11.104650  9882929.5807
11.104650  11.124275  10034331.6526
11.124275  11.125729  10212409.7741
11.125729  11.146611  10427561.9088
11.146611  11.147355  10664023.9817
11.147355  11.165491  10894808.5444
11.165491  11.166864  11158465.2532
11.166864  11.186186  11467411.4345
11.186186  11.186872  11795470.7860
11.186872  11.203624  12105330.6970
11.203624  11.204927  12449581.7669
11.204927  11.222772  12839987.7080
11.222772  11.223412  13240641.9578
11.223412  11.238884  13607704.3678
11.238884  11.240093  13666908.1900
11.240093  11.256577  14092395.4667
11.256577  11.257182  14516263.3468
11.257182  11.271421  14892697.4001
11.271421  11.272550  14655324.4882
11.272550  11.287719  15060741.1261
11.287719  11.288289  15454904.3587
11.288289  11.301365  15797449.7070
11.301365  11.302423  14920689.2165
11.302423  11.316371  15259171.1457
11.316371  11.316918  15585003.2386
11.316918  11.328923  15866625.4097
11.328923  11.329912  13886994.2739
11.329912  11.342732  14130380.7787
11.342732  11.343220  14367163.0630
11.343220  11.354248  11870945.0879
11.354248  11.355167  12016271.0347
11.355167  11.366928  12176765.1176
11.366928  11.367405  10393653.9284
11.367405  11.377514  10491054.8757
11.377514  11.378363  9705140.3882
11.378363  11.389170  9803416.4937
11.389170  11.389647  9909422.8478
11.389647  11.398931  9610080.8352
11.398931  11.399710  9711917.6601
11.399710  11.409645  9653369.5049
11.409645  11.410052  9772219.6527
11.410052  11.418555  9881913.5749
