# RBHG Variable-Width Bremsstrahlung Distribution
# SOURCE: ../../../../hdsim_cobrems/BGRate_41425.root : dRtdkH1
# GENERATED: 2025-11-17 12:51:15
#
# ENERGY_LIMITS (GeV):
# E_MIN_AVAILABLE 2.907719
# E_MAX_AVAILABLE 11.408337
# TOTAL_BINS 649
# TOTAL_COUNTS 13650029624.18
#
# WARNING: User-set E_LO must be >= E_MIN_AVAILABLE
# WARNING: User-set E_HI must be <= E_MAX_AVAILABLE
#
# Format: lowEdge(GeV)  highEdge(GeV)  counts
2.907719  2.933126  22001723.0512
2.933126  2.965750  23316924.8594
2.965750  2.991181  24556294.0189
2.991181  3.023887  25705224.5331
3.023887  3.049317  26751300.5034
3.049317  3.081942  27684646.5812
3.081942  3.107372  28498165.4831
3.107372  3.140171  29187653.7611
3.140171  3.165543  29751794.6988
3.165543  3.198330  30192034.6463
3.198330  3.223644  30512355.7275
3.223644  3.256525  30718963.1737
3.256525  3.281804  30819909.2196
3.281804  3.314614  30824677.3864
3.314614  3.339870  30743751.0788
3.339870  3.372844  30588188.8995
3.372844  3.398030  30369226.2351
3.398030  3.431085  30097918.8554
3.431085  3.456236  29784839.9031
3.456236  3.489325  29439837.1404
3.489325  3.514453  29071853.0054
3.514453  3.547601  28688806.2229
3.547601  3.572706  28297530.5827
3.572706  3.604157  27903764.1806
3.604157  3.628285  27512180.9138
3.628285  3.662490  27126455.3025
3.662490  3.686491  26749351.6625
3.686491  3.720766  26382829.1510
3.720766  3.744674  26028155.0982
3.744674  3.778879  25686020.1753
3.778879  3.802729  25356650.2017
3.802729  3.837155  25039910.6550
3.837155  3.860981  24735401.1279
3.860981  3.895349  24442538.0298
3.895349  3.919071  24160624.7222
3.919071  3.953730  23888908.9961
3.953730  3.977382  23626628.3593
3.977382  4.012075  23373044.0082
4.012075  4.035646  23127464.6399
4.035646  4.070420  22889261.4355
4.070420  4.093910  22657875.6332
4.093910  4.170607  22432820.1277
4.170607  4.194806  22213676.4963
4.194806  4.228709  22000088.7678
4.228709  4.252814  21791755.1291
4.252814  4.286857  21588418.6160
4.286857  4.310880  21389857.6611
4.310880  4.345051  21195877.1885
4.345051  4.368970  21006300.7540
4.368970  4.402536  20820964.0492
4.402536  4.425909  20639709.9180
4.425909  4.460731  20462384.8891
4.460731  4.484022  20288837.1143
4.484022  4.519402  20118915.5158
4.519402  4.543007  19952469.8984
4.543007  4.577433  19789351.7612
4.577433  4.600911  19629415.5477
4.600911  4.635430  19472520.1022
4.635430  4.658803  19318530.1385
4.658803  4.693473  19167317.5697
4.693473  4.716730  19018762.6018
4.716730  4.750261  18872754.5293
4.750261  4.772553  18729192.2145
4.772553  4.808153  18587984.2599
4.808153  4.830678  18449048.9030
4.830678  4.868114  18312313.6789
4.868114  4.890279  18177714.9019
4.890279  4.925030  18045197.0198
4.925030  4.947288  17914711.8917
4.947288  4.983445  17786218.0334
4.983445  5.006784  17659679.8712
5.006784  5.041152  17535067.0297
5.041152  5.062061  17412353.6766
5.062061  5.100334  17291517.9333
5.100334  5.123044  17172541.3541
5.123044  5.156355  17055408.4704
5.156355  5.178298  16940106.3882
5.178298  5.216432  16826624.4267
5.216432  5.237887  16714953.7843
5.237887  5.273185  16605087.2192
5.273185  5.294780  16497018.7369
5.294780  5.331635  16390743.2829
5.331635  5.354230  16286256.4450
5.354230  5.389283  16183554.1787
5.389283  5.409518  16082632.5752
5.409518  5.447303  15983487.6942
5.447303  5.468584  15886115.4883
5.468584  5.504638  15790511.8403
5.504638  5.525849  15696672.7295
5.525849  5.563634  15604594.5320
5.563634  5.583532  15514274.4474
5.583532  5.616308  15425711.0309
5.616308  5.638414  15338904.7977
5.638414  5.673712  15253858.8568
5.673712  5.695272  15170579.5278
5.695272  5.732673  15089076.8976
5.732673  5.753048  15009365.2783
5.753048  5.789984  14931463.5420
5.789984  5.811788  14855395.3213
5.811788  5.848179  14781189.0800
5.848179  5.868855  14708878.0702
5.868855  5.906396  14638500.2046
5.906396  5.926375  14570097.8743
5.926375  5.963637  14503717.7471
5.963637  5.985000  14439410.5765
5.985000  6.021030  14377231.0471
6.021030  6.041683  14317237.6749
6.041683  6.079887  14259492.7757
6.079887  6.099529  14204062.5063
6.099529  6.138523  14151016.9815
6.138523  6.158583  14100430.4614
6.158583  6.195857  14052381.6072
6.195857  6.215197  14006953.7966
6.215197  6.250262  13964235.4919
6.250262  6.276053  13924320.6574
6.276053  6.308875  13887309.2175
6.308875  6.335061  13853307.5596
6.335061  6.361956  13822429.0788
6.361956  6.394964  13794794.7754
6.394964  6.425543  13770533.9092
6.425543  6.449578  13749784.7226
6.449578  6.477752  13732695.2350
6.477752  6.511259  13719424.1049
6.511259  6.540293  13710141.5430
6.540293  6.564875  13705030.2338
6.564875  6.597848  13704286.2059
6.597848  6.622616  13708119.5598
6.622616  6.653218  13716754.9445
6.653218  6.684518  13730431.6635
6.684518  6.709773  13749403.3007
6.709773  6.741306  13773936.7896
6.741306  6.770327  13804310.9097
6.770327  6.799198  13840814.2758
6.799198  6.827429  13883742.9798
6.827429  6.858055  13933398.1254
6.858055  6.885589  13990083.5526
6.885589  6.914924  14054104.0428
6.914924  6.944585  14125764.2247
6.944585  6.972735  14205368.2506
6.972735  7.016447  14293220.0947
7.016447  7.040971  14389624.0624
7.040971  7.073468  14494884.8212
7.073468  7.098061  14609306.0079
7.098061  7.132208  14733186.2649
7.132208  7.155186  14866811.4502
7.155186  7.189857  15010441.7788
7.189857  7.213857  15164292.8271
7.213857  7.246877  15328509.7190
7.246877  7.270785  15503134.4463
7.270785  7.305641  15688067.2077
7.305641  7.327968  15883023.8598
7.327968  7.363173  16087492.9916
7.363173  7.386569  16300697.5660
7.386569  7.420228  16521567.2432
7.420228  7.443462  16748728.0263
7.443462  7.479062  16980515.3943
7.479062  7.500796  17215015.3388
7.500796  7.538895  17450134.6753
7.538895  7.560466  17683697.9417
7.560466  7.593847  17913563.7469
7.593847  7.616371  18137749.4613
7.616371  7.638059  18354550.5729
7.638059  7.653075  18562640.5962
7.653075  7.658468  18761139.4443
7.658468  7.667476  18949642.4088
7.667476  7.673531  19128207.5630
7.673531  7.686072  19297305.3725
7.686072  7.688978  19457739.3565
7.688978  7.701390  19610549.8205
7.701390  7.707202  19756913.4985
7.707202  7.716930  19898050.5041
7.716930  7.723369  20035146.8742
7.723369  7.736026  20169297.1131
7.736026  7.738780  20301467.4102
7.738780  7.750322  20432477.3259
7.750322  7.755633  20562996.0784
7.755633  7.764606  20693549.0766
7.764606  7.770719  20824530.7343
7.770719  7.783341  20956220.4062
7.783341  7.786247  21088799.0995
7.786247  7.798683  21222365.1752
7.798683  7.804367  21356947.5224
7.804367  7.813804  21492514.8283
7.813804  7.819941  21628979.8452
7.819941  7.831959  21766198.2281
7.831959  7.834632  21903962.6974
7.834632  7.846010  22041994.8272
7.846010  7.851276  22179938.2960
7.851276  7.860283  22317358.3908
7.860283  7.866443  22453752.3933
7.866443  7.879112  22588573.8800
7.879112  7.881982  22721271.0742
7.881982  7.894244  22851335.7978
7.894244  7.899753  22978356.2588
7.899753  7.908165  23102064.8989
7.908165  7.908761  23222372.5383
7.908761  7.914654  23339382.2344
7.914654  7.919061  23453380.0928
7.919061  7.928821  23564804.7134
7.928821  7.928949  23674200.8427
7.928949  7.929929  23782165.1808
7.929929  7.940771  23889292.7116
7.940771  7.947999  23996130.5592
7.947999  7.948138  24103143.8594
7.948138  7.951586  24210695.3504
7.951586  7.962373  24319038.0925
7.962373  7.967943  24428319.3545
7.967943  7.968722  24538593.2298
7.968722  7.973135  24649839.6124
7.973135  7.983869  24761987.2998
7.983869  7.989398  24874938.8786
7.989398  7.991851  24988594.6835
7.991851  7.994577  25102872.8049
7.994577  8.005259  25217722.2604
8.005259  8.010610  25333127.3430
8.010610  8.010738  25449102.7987
8.010738  8.015915  25565681.5177
8.015915  8.026545  25682898.2806
8.026545  8.029973  25800774.1618
8.029973  8.032053  25919306.0416
8.032053  8.037149  26038464.2192
8.037149  8.047727  26158198.6772
8.047727  8.052532  26278451.8353
8.052532  8.052974  26399173.5103
8.052974  8.058279  26520333.0414
8.058279  8.068806  26641924.4638
8.068806  8.072442  26763962.9730
8.072442  8.072523  26886473.9196
8.072523  8.079308  27009478.2103
8.079308  8.089784  27132979.3803
8.089784  8.091921  27256957.3198
8.091921  8.094374  27381371.7816
8.094374  8.100235  27506175.8860
8.100235  8.110662  27631336.5976
8.110662  8.112958  27756856.3773
8.112958  8.113923  27882788.6848
8.113923  8.121063  28009240.4415
8.121063  8.131440  28136357.3523
8.131440  8.131996  28264292.8527
8.131996  8.132031  28393167.1154
8.132031  8.141792  28523027.0299
8.141792  8.152120  28653819.4419
8.152120  8.152231  28785387.4146
8.152231  8.155323  28917493.5860
8.155323  8.162423  29049867.5962
8.162423  8.172702  29182267.9394
8.172702  8.173965  29314543.9024
8.173965  8.175360  29446681.6268
8.175360  8.182958  29578820.7499
8.182958  8.191957  29711235.0181
8.191957  8.192027  29844280.8060
8.192027  8.193189  29978328.6685
8.193189  8.203396  30113700.4268
8.203396  8.210879  30250633.7795
8.210879  8.213580  30389286.6229
8.213580  8.214412  30529776.5298
8.214412  8.223741  30672232.8901
8.223741  8.232811  30816827.8071
8.232811  8.233877  30963754.7594
8.233877  8.234821  31113145.2023
8.234821  8.243991  31264947.3693
8.243991  8.251895  31418821.9125
8.251895  8.254082  31574114.8938
8.254082  8.264149  31729940.0739
8.264149  8.270340  31885351.7218
8.270340  8.274152  32039545.8123
8.274152  8.274194  32192017.7001
8.274194  8.284216  32342631.1813
8.284216  8.290726  32491595.9416
8.290726  8.293109  32639380.5205
8.293109  8.294215  32786593.8941
8.294215  8.304192  32933858.7013
8.304192  8.309159  33081689.9136
8.309159  8.311937  33230394.3166
8.311937  8.314146  33380014.0578
8.314146  8.324078  33530337.3101
8.324078  8.331405  33680980.3446
8.331405  8.333265  33831514.8414
8.333265  8.333988  33981594.3601
8.333988  8.343877  34131041.5017
8.343877  8.349594  34279884.6088
8.349594  8.352337  34428354.1146
8.352337  8.353743  34576847.8316
8.353743  8.363588  34725861.8109
8.363588  8.366866  34875882.5468
8.366866  8.369829  35027258.1187
8.369829  8.373411  35180095.3578
8.373411  8.383212  35334236.7049
8.383212  8.388089  35489336.0027
8.388089  8.389995  35644995.8235
8.389995  8.392993  35800896.3042
8.392993  8.402752  35956864.9263
8.402752  8.406231  36112885.6925
8.406231  8.409625  36269076.8304
8.409625  8.412490  36425657.8677
8.412490  8.422207  36582900.4502
8.422207  8.424560  36741045.0086
8.424560  8.428035  36900184.9369
8.428035  8.431904  37060164.3455
8.431904  8.441580  37220566.5948
8.441580  8.445620  37380840.2140
8.445620  8.447515  37540518.7006
8.447515  8.451235  37699417.8817
8.451235  8.460870  37857712.0610
8.460870  8.461985  38015878.9101
8.461985  8.465669  38174578.9030
8.465669  8.470484  38334542.6910
8.470484  8.479500  38496484.4793
8.479500  8.480079  38660989.9964
8.480079  8.483696  38828326.6256
8.483696  8.489653  38998237.2240
8.489653  8.499208  39169900.2651
8.499208  8.502420  39342173.1474
8.502420  8.504163  39513989.7541
8.504163  8.508743  39684639.7411
8.508743  8.518258  39853803.6066
8.518258  8.520935  40021459.8352
8.520935  8.522701  40187827.3896
8.522701  8.527754  40353377.7293
8.527754  8.537230  40518847.0918
8.537230  8.537532  40685150.2726
8.537532  8.539601  40853121.8237
8.539601  8.546688  41023167.8822
8.546688  8.556126  41195111.3274
8.556126  8.556977  41368409.0622
8.556977  8.558627  41542516.2497
8.558627  8.565545  41717040.8494
8.565545  8.574945  41891703.3345
8.574945  8.575410  42066369.4753
8.575410  8.577293  42241150.0962
8.577293  8.584327  42416344.2232
8.584327  8.593146  42592285.0594
8.593146  8.593690  42769312.0790
8.593690  8.595354  42947724.5133
8.595354  8.603035  43127470.5426
8.603035  8.612361  43307920.0738
8.612361  8.612684  43488249.9244
8.612684  8.614299  43668130.9208
8.614299  8.621669  43847940.8880
8.621669  8.629932  44028542.4891
8.629932  8.630959  44211217.5467
8.630959  8.631559  44397550.0257
8.631559  8.640231  44588682.4125
8.640231  8.649486  44784643.8465
8.649486  8.650748  44984976.6066
8.650748  8.653177  45189907.6930
8.653177  8.658723  45399899.7136
8.658723  8.667942  45613716.5967
8.667942  8.675539  45828057.6086
8.675539  8.677144  46040150.9950
8.677144  8.677363  46250167.5421
8.677363  8.686328  46460018.1005
8.686328  8.695496  46670238.3999
8.695496  8.697912  46879490.4622
8.697912  8.699516  47087027.5171
8.699516  8.704646  47293947.0684
8.704646  8.713780  47501592.5076
8.713780  8.717729  47710466.8052
8.717729  8.720042  47921611.8120
8.720042  8.722896  48137127.4597
8.722896  8.731997  48357394.9140
8.731997  8.741080  48579135.1137
8.741080  8.741206  48798843.2049
8.741206  8.742996  49017617.0312
8.742996  8.750148  49239659.3253
8.750148  8.759199  49465826.9390
8.759199  8.763975  49691902.6197
8.763975  8.765637  49914458.1167
8.765637  8.768234  50135213.2324
8.768234  8.777253  50357165.8428
8.777253  8.784396  50579358.2252
8.784396  8.786256  50799563.1092
8.786256  8.786627  51020272.1253
8.786627  8.795243  51246524.0978
8.795243  8.804215  51477919.3338
8.804215  8.806653  51708656.2752
8.806653  8.808339  51936636.3621
8.808339  8.813172  52165676.7308
8.813172  8.822113  52391230.4348
8.822113  8.828167  52569599.8189
8.828167  8.829794  52542638.4503
8.829794  8.831039  51862476.0568
8.831039  8.839949  49606526.7567
8.839949  8.848845  44640344.2434
8.848845  8.848890  36692093.4672
8.848890  8.851319  27322504.5554
8.851319  8.857726  19158125.7582
8.857726  8.866593  13868457.4341
8.866593  8.871914  11293656.1246
8.871914  8.873530  10338991.6694
8.873530  8.875445  10066531.5571
8.875445  8.884282  10008267.1727
8.884282  8.892207  10001933.4387
8.892207  8.893105  10005459.2521
8.893105  8.893730  10010723.3323
8.893730  8.901914  10017160.8405
8.901914  8.911605  10025350.7525
8.911605  8.913953  10035629.3734
8.913953  8.934816  10047907.9561
8.934816  8.936559  10061713.6774
8.936559  8.955969  10076415.4202
8.955969  8.957456  10091586.1572
8.957456  8.974425  10107207.5044
8.974425  8.976599  10123554.6873
8.976599  8.996055  10140864.4937
8.996055  8.997729  10159116.6803
8.997729  9.017127  10178114.2156
9.017127  9.018696  10197706.8826
9.018696  9.036571  10217976.7677
9.036571  9.038803  10239219.2247
9.038803  9.057562  10261594.0580
9.057562  9.062583  10284772.9128
9.062583  9.077088  10308143.7745
9.077088  9.082167  10331395.8440
9.082167  9.095905  10354892.2005
9.095905  9.098125  10379641.7687
9.098125  9.117860  10406449.4650
9.117860  9.122858  10434779.5128
9.122858  9.137549  10463163.7148
9.137549  9.141954  10490693.0968
9.141954  9.155029  10517750.7232
9.155029  9.157040  10545874.5115
9.157040  9.175624  10576566.9136
9.175624  9.180308  10609667.0714
9.180308  9.195999  10643615.4771
9.195999  9.200346  10677090.2538
9.200346  9.214281  10709913.8510
9.214281  9.216350  10743227.6711
9.216350  9.234005  10778431.9518
9.234005  9.237898  10815387.8563
9.237898  9.252705  10852860.3341
9.252705  9.256471  10890542.3080
9.256471  9.270500  10929635.3855
9.270500  9.275985  10971483.7351
9.275985  9.294616  11015077.7060
9.294616  9.295105  11057453.8397
9.295105  9.310086  11097763.8179
9.310086  9.313329  11137755.9342
9.313329  9.326544  11179323.2030
9.326544  9.331309  11223951.6965
9.331309  9.348859  11270962.6712
9.348859  9.349371  11317595.7703
9.349371  9.365108  11363373.4248
9.365108  9.368211  11409999.6152
9.368211  9.382518  11458597.1915
9.382518  9.387028  11509884.1040
9.387028  9.403846  11562758.3409
9.403846  9.404276  11614832.0149
9.404276  9.421547  11666031.7071
9.421547  9.421942  11717331.1738
9.421942  9.438504  11769422.3781
9.438504  9.439597  11823374.7264
9.439597  9.457240  11879484.7038
9.457240  9.457716  11936957.5876
9.457716  9.475627  11995068.4980
9.475627  9.476022  12052558.8798
9.476022  9.491689  12108688.9719
9.491689  9.492712  12164978.5523
9.492712  9.508833  12222528.1622
9.508833  9.509274  12281560.2718
9.509274  9.526545  12342559.1499
9.526545  9.526929  12404759.4834
9.526929  9.543421  12467582.5123
9.543421  9.544514  12531886.1544
9.544514  9.561285  12597444.2904
9.561285  9.561750  12662938.8593
9.561750  9.578103  12727864.1087
9.578103  9.578464  12791833.2728
9.578464  9.593434  12854855.6330
9.593434  9.594433  12919380.4180
9.594433  9.610437  12986642.7320
9.610437  9.610914  13056001.5327
9.610914  9.628022  13127770.1775
9.628022  9.628418  13200118.3691
9.628418  9.644166  13271411.9070
9.644166  9.645201  13343042.7508
9.645201  9.660554  13414634.7319
9.660554  9.660996  13485713.0798
9.660996  9.676547  13557213.4303
9.676547  9.676884  13628784.5492
9.676884  9.691714  13700275.9434
9.691714  9.692760  13774096.6206
9.692760  9.708265  13850474.4398
9.708265  9.708730  13927542.1540
9.708730  9.724606  14005625.3883
9.724606  9.724932  14083315.1860
9.724932  9.739518  14160064.7312
9.739518  9.740703  14248704.9356
9.740703  9.764774  14364652.3890
9.764774  9.765425  14492470.1484
9.765425  9.790158  14624544.0779
9.790158  9.790797  14757401.7660
9.790797  9.813461  14887058.9026
9.813461  9.814705  15020148.5198
9.814705  9.838938  15160375.2366
9.838938  9.839577  15300618.7023
9.839577  9.861741  15436291.1139
9.861741  9.862950  15575494.5581
9.862950  9.886672  15722429.1457
9.886672  9.887288  15866671.4033
9.887288  9.906639  15997946.3560
9.906639  9.909010  16134751.8475
9.909010  9.929931  16283917.6999
9.929931  9.934045  16442759.6559
9.934045  9.953153  16596577.4389
9.953153  9.955315  16744021.5995
9.955315  9.975968  16900435.9219
9.975968  9.979862  17067342.2949
9.979862  9.998655  17228225.4946
9.998655  10.000620  17381791.1021
10.000620  10.020924  17545132.8141
10.020924  10.024620  17720167.8611
10.024620  10.043112  17879323.9416
10.043112  10.044902  16875876.2771
10.044902  10.064881  10474031.3776
10.064881  10.068356  9314044.4026
10.068356  10.086522  9327189.4210
10.086522  10.088149  9350002.0272
10.088149  10.107792  9374812.3068
10.107792  10.111069  9401951.1582
10.111069  10.128922  9428228.4917
10.128922  10.130386  9454030.7933
10.130386  10.154875  9487266.3098
10.154875  10.155224  9521209.7759
10.155224  10.178794  9555231.9471
10.178794  10.180607  9592178.2339
10.180607  10.205805  9632420.9792
10.205805  10.206154  9672007.2897
10.206154  10.229015  9709552.2976
10.229015  10.230782  9750052.8316
10.230782  10.255248  9794139.3019
10.255248  10.255596  9837309.6529
10.255596  10.277784  9877982.6421
10.277784  10.279504  9921834.4175
10.279504  10.303272  9969570.2907
10.303272  10.303621  10016142.8394
10.303621  10.325146  10059740.1404
10.325146  10.326831  10106759.7616
10.326831  10.349890  10157925.9451
10.349890  10.350251  10207702.7000
10.350251  10.371113  10254078.4049
10.371113  10.372764  10304094.7791
10.372764  10.395114  10358518.0384
10.395114  10.395451  10411280.1669
10.395451  10.415686  10460304.2568
10.415686  10.417278  10513243.9268
10.417278  10.438978  10570913.3162
10.438978  10.439326  10626803.7296
10.439326  10.458899  10678443.8800
10.458899  10.460456  10734224.8783
10.460456  10.481482  10795090.2886
10.481482  10.481819  10853973.0996
10.481819  10.500775  10908280.2763
10.500775  10.502309  10967051.0217
10.502309  10.522672  11031184.9520
10.522672  10.523021  11087471.5435
10.523021  10.541384  8671020.5907
10.541384  10.542860  8676215.8902
10.542860  10.562607  8689641.6964
10.562607  10.562944  8702808.2293
10.562944  10.580727  8715073.5879
10.580727  10.582168  8728497.5448
10.582168  10.601299  8743343.3405
10.601299  10.601648  8757850.9627
10.601648  10.618872  8771323.0444
10.618872  10.620267  8786006.5645
10.620267  10.638793  8802190.5864
10.638793  10.639130  8817971.4079
10.639130  10.655786  8832572.8575
10.655786  10.657087  8848412.4364
10.657087  10.685656  8875719.7766
10.685656  10.686493  8903799.6921
10.686493  10.711888  8929895.7366
10.711888  10.713620  8957970.9408
10.713620  10.740712  8989079.9620
10.740712  10.741526  9020526.5194
10.741526  10.765561  9049698.3604
10.765561  10.767212  9081088.2038
10.767212  10.792874  8295146.8694
10.792874  10.793665  8303272.4796
10.793665  10.816433  8311290.4189
10.816433  10.819560  8321036.8560
10.819560  10.843084  8332196.9012
10.843084  10.843781  8343444.9729
10.843781  10.864621  8354427.2190
10.864621  10.867584  8367756.6079
10.867584  10.889876  8383423.5821
10.889876  10.890527  8399178.2113
10.890527  10.910251  8414524.3738
10.910251  10.913064  8433151.4776
10.913064  10.934821  8455670.8390
10.934821  10.935414  8478406.7564
10.935414  10.954626  8193656.8980
10.954626  10.956137  8209639.7945
10.956137  10.976686  8229198.6373
10.976686  10.977278  8250705.9199
10.977278  10.995398  8272262.5681
10.995398  10.996828  8297595.5004
10.996828  11.016214  8328082.4593
11.016214  11.016784  8361098.3054
11.016784  11.033857  8393714.6381
11.033857  11.035217  8431586.1382
11.035217  11.053511  8476676.6888
11.053511  11.054057  8524943.5612
11.054057  11.070143  8572066.7581
11.070143  11.071375  8626062.0736
11.071375  11.093923  8709233.6900
11.093923  11.094713  8802189.1485
11.094713  11.114320  8893693.1483
11.114320  11.115773  8999309.1693
11.115773  11.136636  9124847.8840
11.136636  11.137380  9261138.8115
11.137380  11.155499  9393111.4807
11.155499  11.156871  9543289.7743
11.156871  11.176176  9719180.4967
11.176176  11.176862  9906727.2587
11.176862  11.193598  10085179.4416
11.193598  11.194900  10285593.4945
11.194900  11.212729  10516431.3992
11.212729  11.213368  10758116.0674
11.213368  11.228826  10984524.5529
11.228826  11.230035  11234975.9989
11.230035  11.246504  11518978.3856
11.246504  11.247109  11811742.7554
11.247109  11.261335  12081106.5363
11.261335  11.262462  12078409.1594
11.262462  11.277618  12394336.8010
11.277618  11.278187  12715811.2710
11.278187  11.291251  13007656.0195
11.291251  11.292309  13322971.9850
11.292309  11.306244  13093154.3364
11.306244  11.306791  13421431.2003
11.306791  11.318785  13716889.9568
11.318785  11.319773  14033933.9614
11.319773  11.332581  13259023.8923
11.332581  11.333069  13563062.7920
11.333069  11.344088  13835737.7009
11.344088  11.345006  12137881.5750
11.345006  11.356756  12375908.7797
11.356756  11.357233  12615178.9226
11.357233  11.367333  12830260.7494
11.367333  11.368181  10617689.7278
11.368181  11.378979  10772548.0910
11.378979  11.379455  10930290.8386
11.379455  11.388730  9327660.8524
11.388730  11.389509  9415773.6194
11.389509  11.399434  9516049.7251
11.399434  11.399841  8791842.9616
11.399841  11.408337  8857291.8100
