# RBHG Variable-Width Bremsstrahlung Distribution
# SOURCE: ../../../../hdsim_cobrems/BGRate_51029.root : dRtdkH1
# GENERATED: 2025-11-17 12:55:25
#
# ENERGY_LIMITS (GeV):
# E_MIN_AVAILABLE 2.911326
# E_MAX_AVAILABLE 11.422492
# TOTAL_BINS 649
# TOTAL_COUNTS 11578062027.15
#
# WARNING: User-set E_LO must be >= E_MIN_AVAILABLE
# WARNING: User-set E_HI must be <= E_MAX_AVAILABLE
#
# Format: lowEdge(GeV)  highEdge(GeV)  counts
2.911326  2.936765  18955196.6856
2.936765  2.969430  20140949.8056
2.969430  2.994892  21254569.3791
2.994892  3.027638  22281879.8783
3.027638  3.053100  23210981.7307
3.053100  3.085765  24032609.4612
3.085765  3.111227  24740364.4801
3.111227  3.144067  25330813.6941
3.144067  3.169470  25803454.0611
3.169470  3.202298  26160551.7652
3.202298  3.227644  26406872.1547
3.227644  3.260565  26549322.4075
3.260565  3.285876  26596532.6784
3.285876  3.318727  26558403.1070
3.318727  3.344014  26445643.5663
3.344014  3.377028  26269330.6674
3.377028  3.402246  26040502.7006
3.402246  3.435341  25769808.3601
3.435341  3.460524  25467219.7928
3.460524  3.493655  25141815.2057
3.493655  3.518814  24801631.3834
3.518814  3.552003  24453582.3278
3.552003  3.577138  24103437.0203
3.577138  3.608628  23755847.1328
3.608628  3.632787  23414414.3292
3.632787  3.667034  23081786.5325
3.667034  3.691065  22759772.9969
3.691065  3.725382  22449469.0550
3.725382  3.749320  22151382.7914
3.749320  3.783568  21865557.4576
3.783568  3.807447  21591685.0260
3.807447  3.841916  21329207.7676
3.841916  3.865771  21077406.0473
3.865771  3.900182  20835471.6191
3.900182  3.923933  20602566.5539
3.923933  3.958635  20377868.5605
3.958635  3.982316  20160603.8908
3.982316  4.017053  19950069.2794
4.017053  4.040653  19745644.5072
4.040653  4.075471  19546797.2149
4.075471  4.098989  19353081.5640
4.098989  4.175782  19164132.2657
4.175782  4.200010  18979655.3837
4.200010  4.233955  18799417.1811
4.233955  4.258090  18623232.1187
4.258090  4.292175  18450950.9390
4.292175  4.316229  18282449.5780
4.316229  4.350442  18117619.4544
4.350442  4.374391  17956359.4913
4.374391  4.407998  17798570.0409
4.407998  4.431400  17644148.7206
4.431400  4.466265  17492988.0299
4.466265  4.489586  17344974.5153
4.489586  4.525009  17199989.1828
4.525009  4.548643  17057908.8263
4.548643  4.583112  16918607.9415
4.583112  4.606619  16781960.9222
4.606619  4.641181  16647844.2843
4.641181  4.664583  16516138.7175
4.664583  4.699296  16386730.8280
4.699296  4.722582  16259514.4907
4.722582  4.756155  16134391.7822
4.756155  4.778475  16011273.5024
4.778475  4.814119  15890079.3250
4.814119  4.836671  15770737.6327
4.836671  4.874154  15653185.1030
4.874154  4.896346  15537366.1155
4.896346  4.931141  15423232.0434
4.931141  4.953426  15310740.4889
4.953426  4.989628  15199854.5127
4.989628  5.012995  15090541.8951
5.012995  5.047406  14982774.4577
5.047406  5.068341  14876527.4629
5.068341  5.106662  14771779.0973
5.106662  5.129401  14668510.0368
5.129401  5.162752  14566703.0840
5.162752  5.184723  14466342.8606
5.184723  5.222904  14367415.5366
5.222904  5.244386  14269908.5760
5.244386  5.279728  14173810.4829
5.279728  5.301349  14079110.5334
5.301349  5.338250  13985798.4918
5.338250  5.360873  13893864.3132
5.360873  5.395970  13803297.8490
5.395970  5.416230  13714088.5779
5.416230  5.454062  13626225.3925
5.454062  5.475369  13539696.4752
5.475369  5.511467  13454489.2931
5.511467  5.532705  13370590.7365
5.532705  5.570537  13287987.4103
5.570537  5.590459  13206666.0742
5.590459  5.623276  13126614.2098
5.623276  5.645409  13047820.6747
5.645409  5.680751  12970276.3960
5.680751  5.702338  12893975.0464
5.702338  5.739786  12818913.6497
5.739786  5.760185  12745093.0724
5.760185  5.797168  12672518.3703
5.797168  5.818999  12601198.9794
5.818999  5.855434  12531148.7577
5.855434  5.876137  12462385.9002
5.876137  5.913724  12394932.7612
5.913724  5.933728  12328815.6231
5.933728  5.971036  12264064.4500
5.971036  5.992425  12200712.6639
5.992425  6.028500  12138796.9687
6.028500  6.049179  12078357.2426
6.049179  6.087430  12019436.5106
6.087430  6.107096  11962081.0018
6.107096  6.146139  11906340.2892
6.146139  6.166224  11852267.5074
6.166224  6.203544  11799919.6403
6.203544  6.222908  11749357.8654
6.222908  6.258017  11700647.9448
6.258017  6.283840  11653860.6493
6.283840  6.316702  11609072.2051
6.316702  6.342921  11566364.7582
6.342921  6.369849  11525826.8541
6.369849  6.402898  11487553.9404
6.402898  6.433515  11451648.9052
6.433515  6.457580  11418222.6686
6.457580  6.485788  11387394.8474
6.485788  6.519338  11359294.5074
6.519338  6.548407  11334061.0065
6.548407  6.573019  11311844.9161
6.573019  6.606034  11292808.9817
6.606034  6.630832  11277129.0584
6.630832  6.661472  11264994.9305
6.661472  6.692811  11256610.9060
6.692811  6.718098  11252196.0750
6.718098  6.749669  11251984.1360
6.749669  6.778727  11256222.7375
6.778727  6.807633  11265172.3469
6.807633  6.835900  11279104.7358
6.835900  6.866563  11298301.2544
6.866563  6.894131  11323051.1248
6.894131  6.923503  11353650.0057
6.923503  6.953201  11390399.0497
6.953201  6.981386  11433604.5700
6.981386  7.025153  11483578.2793
7.025153  7.049707  11540637.8479
7.049707  7.082244  11605107.2936
7.082244  7.106868  11677316.4683
7.106868  7.141057  11757598.6811
7.141057  7.164064  11846285.3192
7.164064  7.198777  11943696.2173
7.198777  7.222807  12050124.5428
7.222807  7.255868  12165815.1580
7.255868  7.279806  12290935.8733
7.279806  7.314705  12425541.7900
7.314705  7.337060  12569534.0978
7.337060  7.372308  12722616.1801
7.372308  7.395734  12884251.5588
7.395734  7.429434  13053629.7416
7.429434  7.452697  13229647.0308
7.452697  7.488341  13410909.3139
7.488341  7.510102  13595762.4361
7.510102  7.548248  13782352.8025
7.548248  7.569847  13968716.6153
7.569847  7.603268  14152891.2605
7.603268  7.625821  14333037.7989
7.625821  7.647535  14507560.3645
7.647535  7.662570  14675207.4422
7.662570  7.667970  14835141.9244
7.667970  7.676989  14986971.3075
7.676989  7.683052  15130735.5400
7.683052  7.695608  15266856.5559
7.695608  7.698517  15396059.0233
7.698517  7.710945  15519275.2003
7.710945  7.716764  15637547.4676
7.716764  7.726504  15751940.2556
7.726504  7.732951  15863469.4308
7.732951  7.745624  15973052.8159
7.745624  7.748382  16081481.4560
7.748382  7.759937  16189408.2977
7.759937  7.765255  16297349.4580
7.765255  7.774239  16405693.1335
7.774239  7.780360  16514712.0106
7.780360  7.792998  16624576.2314
7.792998  7.795907  16735365.1026
7.795907  7.808359  16847076.5269
7.808359  7.814049  16959633.6267
7.814049  7.823499  17072888.3974
7.823499  7.829643  17186622.7497
7.829643  7.841676  17300548.1360
7.841676  7.844352  17414306.0280
7.844352  7.855745  17527472.4838
7.855745  7.861016  17639570.4030
7.861016  7.870035  17750092.3273
7.870035  7.876203  17858534.6239
7.876203  7.888887  17964440.8739
7.888887  7.891761  18067449.0611
7.891761  7.898462  18167334.7938
7.898462  7.904039  18264042.2335
7.904039  7.909444  18357696.1043
7.909444  7.909554  18448591.7915
7.909554  7.918573  18537165.0941
7.918573  7.920396  18623947.3246
7.920396  7.924473  18709513.9626
7.924473  7.931320  18794435.3827
7.931320  7.938659  18879236.4593
7.938659  7.938787  18964368.8843
7.938787  7.942216  19050196.8291
7.942216  7.953083  19136993.9947
7.953083  7.957860  19224948.6161
7.957860  7.957999  19314172.6737
7.957999  7.963921  19404712.2268
7.963921  7.974731  19496557.0566
7.974731  7.977829  19589649.2890
7.977829  7.978609  19683891.9281
7.978609  7.985514  19779158.8562
7.985514  7.996268  19875307.5803
7.996268  7.999311  19972194.8538
7.999311  8.001766  20069693.6605
8.001766  8.006994  20167708.5679
8.006994  8.017693  20266185.8340
8.017693  8.020548  20365115.2836
8.020548  8.020676  20464522.7960
8.020676  8.028365  20564454.7678
8.028365  8.039009  20664958.3156
8.039009  8.039936  20766062.4868
8.039936  8.042019  20867765.7565
8.042019  8.049626  20970033.4609
8.049626  8.060215  21072805.8924
8.060215  8.062523  21176014.4026
8.062523  8.062965  21279600.1277
8.062965  8.070778  21383528.8958
8.070778  8.081314  21487797.0188
8.081314  8.082457  21592425.7655
8.082457  8.082539  21697446.3806
8.082539  8.091824  21802881.1515
8.091824  8.101961  21908727.9028
8.101961  8.102307  22014954.6652
8.102307  8.104416  22121508.1495
8.104416  8.112764  22228334.9118
8.112764  8.123024  22335409.1693
8.123024  8.123194  22442757.7663
8.123194  8.123990  22550472.2254
8.123990  8.133598  22658700.7584
8.133598  8.142085  22767619.0011
8.142085  8.142120  22877385.3386
8.142120  8.143977  22988092.5442
8.143977  8.154330  23099729.8774
8.154330  8.162345  23212167.8392
8.162345  8.164657  23325172.2200
8.164657  8.165441  23438446.7657
8.165441  8.174958  23551696.5818
8.174958  8.184107  23664698.4902
8.184107  8.185234  23777360.9670
8.185234  8.185503  23889756.5371
8.185503  8.195485  24002115.0945
8.195485  8.202121  24114777.5238
8.202121  8.202191  24228122.2606
8.202191  8.205711  24342487.8830
8.205711  8.215912  24458117.5551
8.215912  8.221066  24575144.3315
8.221066  8.224604  24693621.9781
8.224604  8.226089  24813588.4379
8.226089  8.236240  24935133.1551
8.236240  8.243025  25058430.6855
8.243025  8.245038  25183708.4778
8.245038  8.246367  25311141.8393
8.246367  8.256470  25440709.0349
8.256470  8.262133  25572073.9473
8.262133  8.266548  25704566.2782
8.266548  8.276603  25837288.9055
8.276603  8.280601  25969318.3039
8.280601  8.284418  26099917.1300
8.284418  8.286633  26228678.4100
8.286633  8.296640  26355564.0148
8.296640  8.301012  26480852.5318
8.301012  8.303398  26605039.2585
8.303398  8.306623  26728724.9334
8.306623  8.316582  26852507.2098
8.316582  8.319469  26976874.6228
8.319469  8.322250  27102109.6219
8.322250  8.326518  27228226.5751
8.326518  8.336431  27354978.6169
8.336431  8.341742  27481945.5399
8.341742  8.343604  27608673.0417
8.343604  8.346321  27734805.8030
8.346321  8.356188  27860168.7575
8.356188  8.359954  27984790.3294
8.359954  8.362700  28108890.2608
8.362700  8.366032  28232849.4214
8.366032  8.375853  28357153.5299
8.375853  8.377246  28482292.2126
8.377246  8.380214  28608621.0591
8.380214  8.385652  28736240.9080
8.385652  8.395428  28864967.3561
8.395428  8.398496  28994419.9686
8.398496  8.400404  29124181.8893
8.400404  8.405182  29253938.7740
8.405182  8.414914  29383538.9759
8.414914  8.416661  29512984.0065
8.416661  8.420059  29642393.8836
8.420059  8.424624  29771977.6705
8.424624  8.434312  29902002.2514
8.434312  8.435012  30032725.6975
8.435012  8.438492  30164275.9190
8.438492  8.443978  30296520.7410
8.443978  8.453623  30429035.9533
8.453623  8.456099  30561241.9861
8.456099  8.457996  30692651.6530
8.457996  8.463246  30823082.2843
8.463246  8.472484  30952728.4685
8.472484  8.472848  31082098.9312
8.472848  8.476173  31211881.7757
8.476173  8.482429  31342803.7934
8.482429  8.490021  31475519.5302
8.490021  8.491989  31610503.9823
8.491989  8.494222  31747890.8446
8.494222  8.501528  31887300.6567
8.501528  8.511046  32027848.9391
8.511046  8.512969  32168446.3654
8.512969  8.514714  32308203.4061
8.514714  8.520544  32446628.5613
8.520544  8.530021  32583564.3724
8.530021  8.531507  32719073.4587
8.531507  8.533275  32853414.8056
8.533275  8.539477  32987054.0944
8.539477  8.548124  33120645.0117
8.548124  8.548914  33254956.8701
8.548914  8.550196  33390659.8191
8.550196  8.558331  33527990.0129
8.558331  8.567593  33666624.7627
8.567593  8.567727  33806004.4444
8.567727  8.569246  33945750.2836
8.569246  8.577104  34085680.6620
8.577104  8.586049  34225589.6135
8.586049  8.586461  34365306.7344
8.586461  8.587935  34504950.9920
8.587935  8.595799  34644872.2547
8.595799  8.603807  34785367.8044
8.603807  8.605117  34926667.2756
8.605117  8.606018  35069018.1623
8.606018  8.614416  35212361.1461
8.614416  8.623369  35355995.5192
8.623369  8.623696  35499047.1702
8.623696  8.624987  35641313.3751
8.624987  8.632957  35783336.5075
8.632957  8.640639  35925888.8537
8.640639  8.642199  36069956.9899
8.642199  8.642268  36216920.7258
8.642268  8.651423  36367788.9282
8.651423  8.660627  36522279.9779
8.660627  8.661481  36679633.2920
8.661481  8.663913  36840300.0249
8.663913  8.669814  37005435.9163
8.669814  8.678982  37174194.9628
8.678982  8.686302  37342979.3872
8.686302  8.688129  37508691.0962
8.688129  8.688132  37671879.6442
8.688132  8.697264  37835168.1995
8.697264  8.706378  37999192.5732
8.706378  8.708704  38162083.2919
8.708704  8.710309  38322847.2225
8.710309  8.715475  38482914.0130
8.715475  8.724553  38643709.5226
8.724553  8.728545  38805084.8508
8.728545  8.730860  38967514.7916
8.730860  8.733615  39133478.2243
8.733615  8.742659  39304100.0248
8.742659  8.751685  39476021.3890
8.751685  8.752051  39644991.2595
8.752051  8.753844  39812016.3216
8.753844  8.760695  39982164.3993
8.760695  8.769688  40156797.8802
8.769688  8.774848  40331021.2054
8.774848  8.776512  40500657.5142
8.776512  8.778664  40667958.9661
8.778664  8.787623  40837017.5864
8.787623  8.795295  41006727.7326
8.795295  8.796566  41173606.6051
8.796566  8.797529  41339808.3321
8.797529  8.805492  41511501.8748
8.805492  8.814402  41688934.1783
8.814402  8.817580  41865211.5180
8.817580  8.819267  42037142.2890
8.819267  8.823296  42210399.6942
8.823296  8.832174  42389581.1118
8.832174  8.839120  42569170.1340
8.839120  8.840749  42741533.5910
8.840749  8.841037  42909986.1311
8.841037  8.849883  43084316.1398
8.849883  8.858714  43264907.6233
8.858714  8.859868  43442910.5839
8.859868  8.862301  43617066.5419
8.862301  8.867529  43796964.7930
8.867529  8.876329  43978470.4814
8.876329  8.882921  44089793.3798
8.882921  8.884539  43841186.3150
8.884539  8.885114  42414662.9300
8.885114  8.893884  38437565.1625
8.893884  8.903240  31187643.9300
8.903240  8.904764  22273166.8852
8.904764  8.922662  14838000.6243
8.922662  8.925012  10609959.5553
8.925012  8.945901  8958451.7399
8.945901  8.947646  8513953.5872
8.947646  8.967080  8436128.4373
8.967080  8.968570  8434463.2047
8.968570  8.985560  8444260.4206
8.985560  8.987736  8455867.7647
8.987736  9.007216  8468411.8319
9.007216  9.008892  8481787.1577
9.008892  9.028314  8495823.1457
9.028314  9.029885  8510391.9472
9.029885  9.047783  8525561.3990
9.047783  9.050017  8541600.7605
9.050017  9.068800  8558678.9431
9.068800  9.073827  8576521.8896
9.073827  9.088350  8594589.7687
9.088350  9.093435  8612601.9510
9.093435  9.107190  8630841.2101
9.107190  9.109413  8650194.8673
9.109413  9.129172  8671438.4474
9.129172  9.134176  8694101.6221
9.134176  9.148885  8716844.9390
9.148885  9.153296  8738870.4179
9.153296  9.166388  8760497.8032
9.166388  9.168401  8783090.9017
9.168401  9.187008  8808054.2928
9.187008  9.191698  8835227.8093
9.191698  9.207408  8863161.6165
9.207408  9.211760  8890693.4185
9.211760  9.225713  8917656.9290
9.225713  9.227784  8945094.4526
9.227784  9.245461  8974361.3145
9.245461  9.249360  9005292.8217
9.249360  9.264185  9036649.2100
9.264185  9.267955  9068129.5254
9.267955  9.282001  9100870.2008
9.282001  9.287494  9136252.9487
9.287494  9.306148  9173401.7172
9.306148  9.306637  9209388.8252
9.306637  9.321637  9243463.5214
9.321637  9.324884  9277365.9790
9.324884  9.338115  9312701.7119
9.338115  9.342886  9350892.8750
9.342886  9.360458  9391384.1023
9.360458  9.360970  9431403.5584
9.360970  9.376727  9470596.8973
9.376727  9.379834  9510702.0672
9.379834  9.394159  9552589.0174
9.394159  9.398674  9596975.7853
9.398674  9.415513  9642883.4233
9.415513  9.415943  9687922.5149
9.415943  9.433236  9732186.6913
9.433236  9.433632  9776627.3409
9.433632  9.450214  9821759.7465
9.450214  9.451308  9868610.8418
9.451308  9.468973  9917462.6235
9.468973  9.469450  9967510.2790
9.469450  9.487383  10018188.0782
9.487383  9.487779  10068331.7011
9.487779  9.503465  10117136.3512
9.503465  9.504490  10166148.7832
9.504490  9.520630  10216343.6468
9.520630  9.521072  10267800.2593
9.521072  9.538365  10321075.7722
9.538365  9.538749  10375390.7571
9.538749  9.555262  10430138.4880
9.555262  9.556356  10486250.1539
9.556356  9.573148  10543512.8255
9.573148  9.573613  10600640.4771
9.573613  9.589987  10657246.6782
9.589987  9.590347  10713000.0409
9.590347  9.605336  10767741.4123
9.605336  9.606337  10823843.1182
9.606337  9.622361  10882412.9587
9.622361  9.622838  10942665.3473
9.622838  9.639968  11005098.2953
9.639968  9.640363  11067977.2943
9.640363  9.656132  11129690.2392
9.656132  9.657167  11191763.8186
9.657167  9.672540  11253734.7905
9.672540  9.672982  11315111.3453
9.672982  9.688552  11376857.8120
9.688552  9.688890  11438596.9157
9.688890  9.703739  11500047.8298
9.703739  9.704786  11563534.0814
9.704786  9.720310  11629237.1889
9.720310  9.720775  11695297.5397
9.720775  9.736671  11762223.1525
9.736671  9.736997  11828725.4268
9.736997  9.751602  11893836.9539
9.751602  9.752789  11968645.6434
9.752789  9.776889  12068044.7992
9.776889  9.777541  12176629.4292
9.777541  9.802304  12288442.8247
9.802304  9.802944  12400688.4239
9.802944  9.825636  12509450.7351
9.825636  9.826882  12620896.5760
9.826882  9.851145  12738353.4236
9.851145  9.851785  12855377.2759
9.851785  9.873977  12967757.0158
9.873977  9.875187  13082858.2697
9.875187  9.898938  13204411.0117
9.898938  9.899555  13323496.0963
9.899555  9.918930  13430437.2215
9.918930  9.921304  13542193.9209
9.921304  9.942251  13663772.5733
9.942251  9.946370  13793272.1240
9.946370  9.965502  13917851.9843
9.965502  9.967666  14036369.9039
9.967666  9.988345  14162159.7930
9.988345  9.992244  14296510.1974
9.992244  10.011061  14425136.8524
10.011061  10.013027  14546991.7791
10.013027  10.033357  14676717.7070
10.033357  10.037058  14815882.0146
10.037058  10.055572  14948835.2524
10.055572  10.057364  15072269.8261
10.057364  10.077368  14447958.6118
10.077368  10.080848  8679042.8997
10.080848  10.099037  7921133.3891
10.099037  10.100666  7938942.3425
10.100666  10.120332  7961105.5798
10.120332  10.123614  7985463.2690
10.123614  10.141488  8008970.9153
10.141488  10.142955  8031814.6557
10.142955  10.167474  8061753.7786
10.167474  10.167823  8092097.4780
10.167823  10.191423  8122422.9823
10.191423  10.193238  8155393.9464
10.193238  10.218467  8191363.2290
10.218467  10.218816  8226627.1608
10.218816  10.241706  8259872.3388
10.241706  10.243475  8295784.0751
10.243475  10.267971  8334887.5202
10.267971  10.268320  8373016.1532
10.268320  10.290535  8408710.6738
10.290535  10.292258  8447206.2073
10.292258  10.316055  8489076.6627
10.316055  10.316404  8529730.2371
10.316404  10.337956  8567542.4078
10.337956  10.339644  8608296.8822
10.339644  10.362731  8652563.5365
10.362731  10.363092  8695407.4545
10.363092  10.383981  8735071.6069
10.383981  10.385633  8777804.2161
10.385633  10.408011  8824164.8073
10.408011  10.408349  8868877.3100
10.408349  10.428609  8910187.8051
10.428609  10.430203  8954698.0265
10.430203  10.451929  9003025.9581
10.451929  10.452278  9049627.8539
10.452278  10.471875  9092461.6574
10.471875  10.473434  9138597.4478
10.473434  10.494486  9188749.3034
10.494486  10.494823  9237030.1544
10.494823  10.513803  9281346.5009
10.513803  10.515339  9329142.4034
10.515339  10.535727  9381083.9183
10.535727  10.536076  9429679.4562
10.536076  10.554463  7404051.6420
10.554463  10.555941  7413323.4578
10.555941  10.575712  7425524.8088
10.575712  10.576050  7437439.9834
10.576050  10.593854  7448494.2773
10.593854  10.595297  7460540.2806
10.595297  10.614452  7473796.1454
10.614452  10.614801  7486682.8152
10.614801  10.632047  7498590.5873
10.632047  10.633443  7511502.1928
10.633443  10.651993  7525652.0480
10.651993  10.652330  7539369.6502
10.652330  10.669006  7551993.0509
10.669006  10.670309  7565610.4016
10.670309  10.698913  7588901.2291
10.698913  10.699751  7612622.6167
10.699751  10.725178  7634469.6840
10.725178  10.726912  7657769.7903
10.726912  10.754038  7683355.7832
10.754038  10.754852  7708990.5253
10.754852  10.778918  7732583.5534
10.778918  10.780570  7757790.8890
10.780570  10.806265  7089247.5832
10.806265  10.807056  7096046.7566
10.807056  10.829853  7102756.4301
10.829853  10.832983  7110929.7522
10.832983  10.856537  7120329.0752
10.856537  10.857235  7129861.6640
10.857235  10.878100  7139237.1933
10.878100  10.881068  7150717.5193
10.881068  10.903387  7164363.1093
10.903387  10.904039  7178257.2883
10.904039  10.923787  7191959.5701
10.923787  10.926603  7208813.2638
10.926603  10.948388  7229507.0524
10.948388  10.948981  6993929.6312
10.948981  10.968217  7007989.4057
10.968217  10.969730  7025069.1491
10.969730  10.990304  7046263.4337
10.990304  10.990898  7069882.7262
10.990898  11.009040  7093835.7004
11.009040  11.010471  7122289.5629
11.010471  11.029882  7156903.7895
11.029882  11.030452  7194775.3964
11.030452  11.047547  7232521.8741
11.047547  11.048908  7276707.0058
11.048908  11.067225  7329723.0970
11.067225  11.067772  7386892.4012
11.067772  11.083878  7443048.6588
11.083878  11.085111  7507725.0762
11.085111  11.107687  7607905.4457
11.107687  11.108478  7720414.9223
11.108478  11.128110  7831546.6629
11.128110  11.129564  7960071.4445
11.129564  11.150453  8112967.9684
11.150453  11.151198  8278807.8288
11.151198  11.169340  8439059.4460
11.169340  11.170713  8620801.7523
11.170713  11.190042  8832628.8257
11.190042  11.190729  9056958.7874
11.190729  11.207486  9268825.6406
11.207486  11.208789  9504751.3123
11.208789  11.226640  9773702.1474
11.226640  11.227281  10051954.5261
11.227281  11.242758  10309478.6272
11.242758  11.243968  10328749.9530
11.243968  11.260458  10632460.5575
11.260458  11.261063  10941002.2890
11.261063  11.275307  11220788.1457
11.275307  11.276435  11029857.5850
11.276435  11.291610  11340782.8058
11.291610  11.292180  11652138.7209
11.292180  11.305260  11930645.5199
11.305260  11.306319  11268791.4720
11.306319  11.320272  11553552.4176
11.320272  11.320819  11836882.5320
11.320819  11.332828  12088987.2654
11.332828  11.333817  10578705.8159
11.333817  11.346641  10799666.6874
11.346641  11.347130  11019853.3977
11.347130  11.358162  9101638.6431
11.358162  11.359081  9233049.0314
11.359081  11.370846  9379268.2193
11.370846  11.371324  8002833.9572
11.371324  11.381436  8083607.2678
11.381436  11.382286  7477268.6189
11.382286  11.393096  7550269.5960
11.393096  11.393574  7628086.1048
11.393574  11.402860  7388517.7769
11.402860  11.403640  7458395.9713
11.403640  11.413578  7401627.6008
11.413578  11.413985  7481490.9294
11.413985  11.422492  7555894.8856
