# RBHG Variable-Width Bremsstrahlung Distribution
# SOURCE: ../../../../hdsim_cobrems/BGRate_51056.root : dRtdkH1
# GENERATED: 2025-11-17 12:55:06
#
# ENERGY_LIMITS (GeV):
# E_MIN_AVAILABLE 2.911326
# E_MAX_AVAILABLE 11.422492
# TOTAL_BINS 649
# TOTAL_COUNTS 13382756858.11
#
# WARNING: User-set E_LO must be >= E_MIN_AVAILABLE
# WARNING: User-set E_HI must be <= E_MAX_AVAILABLE
#
# Format: lowEdge(GeV)  highEdge(GeV)  counts
2.911326  2.936765  21904692.2063
2.936765  2.969430  23252973.0201
2.969430  2.994892  24520795.0125
2.994892  3.027638  25692455.9248
3.027638  3.053100  26754713.7082
3.053100  3.085765  27697176.1386
3.085765  3.111227  28512558.0369
3.111227  3.144067  29196796.4118
3.144067  3.169470  29749023.1297
3.169470  3.202298  30171403.6451
3.202298  3.227644  30468858.1682
3.227644  3.260565  30648687.8304
3.260565  3.285876  30720132.5292
3.285876  3.318727  30693889.0310
3.318727  3.344014  30581617.6184
3.344014  3.377028  30395463.3273
3.377028  3.402246  30147614.0254
3.402246  3.435341  29849912.7014
3.435341  3.460524  29513535.9044
3.460524  3.493655  29148744.7716
3.493655  3.518814  28764709.9607
3.518814  3.552003  28369407.3819
3.552003  3.577138  27969578.1312
3.577138  3.608628  27570743.5659
3.608628  3.632787  27177265.0265
3.632787  3.667034  26792437.2186
3.667034  3.691065  26418604.5613
3.691065  3.725382  26057290.7176
3.725382  3.749320  25709332.8334
3.749320  3.783568  25375013.5551
3.783568  3.807447  25054185.5019
3.807447  3.841916  24746384.4129
3.841916  3.865771  24450928.5817
3.865771  3.900182  24167003.3789
3.900182  3.923933  23893730.6209
3.923933  3.958635  23630223.2791
3.958635  3.982316  23375626.5502
3.982316  4.017053  23129146.6638
4.017053  4.040653  22890069.0113
4.040653  4.075471  22657767.2812
4.075471  4.098989  22431705.3014
4.098989  4.175782  22211433.2395
4.175782  4.200010  21996579.7199
4.200010  4.233955  21786841.2795
4.233955  4.258090  21581970.4275
4.258090  4.292175  21381763.3814
4.292175  4.316229  21186048.3543
4.316229  4.350442  20994675.0531
4.350442  4.374391  20807505.8346
4.374391  4.407998  20624408.7660
4.407998  4.431400  20445252.6506
4.431400  4.466265  20269903.9269
4.466265  4.489586  20098225.2320
4.489586  4.525009  19930075.3357
4.525009  4.548643  19765310.1143
4.548643  4.583112  19603784.2225
4.583112  4.606619  19445353.1470
4.606619  4.641181  19289875.3654
4.641181  4.664583  19137214.3932
4.664583  4.699296  18987240.5600
4.699296  4.722582  18839832.4179
4.722582  4.756155  18694877.7360
4.756155  4.778475  18552274.0784
4.778475  4.814119  18411928.9964
4.814119  4.836671  18273759.8874
4.836671  4.874154  18137693.5831
4.874154  4.896346  18003665.7368
4.896346  4.931141  17871620.0782
4.931141  4.953426  17741507.5949
4.953426  4.989628  17613285.6970
4.989628  5.012995  17486917.4044
5.012995  5.047406  17362370.5911
5.047406  5.068341  17239617.3050
5.068341  5.106662  17118633.1729
5.106662  5.129401  16999396.8904
5.129401  5.162752  16881889.7867
5.162752  5.184723  16766095.4501
5.184723  5.222904  16651999.3949
5.222904  5.244386  16539588.7503
5.244386  5.279728  16428851.9542
5.279728  5.301349  16319778.4405
5.301349  5.338250  16212358.3160
5.338250  5.360873  16106582.0311
5.360873  5.395970  16002440.0623
5.395970  5.416230  15899922.6277
5.416230  5.454062  15799019.4687
5.454062  5.475369  15699719.7295
5.475369  5.511467  15602011.9657
5.511467  5.532705  15505884.3048
5.532705  5.570537  15411324.7671
5.570537  5.590459  15318321.7417
5.590459  5.623276  15226864.5933
5.623276  5.645409  15136944.3581
5.645409  5.680751  15048554.4800
5.680751  5.702338  14961691.5263
5.702338  5.739786  14876355.8299
5.739786  5.760185  14792552.0120
5.760185  5.797168  14710289.3522
5.797168  5.818999  14629581.9958
5.818999  5.855434  14550449.0036
5.855434  5.876137  14472914.2660
5.876137  5.913724  14397006.3167
5.913724  5.933728  14322758.0869
5.933728  5.971036  14250206.6392
5.971036  5.992425  14179392.9202
5.992425  6.028500  14110361.5611
6.028500  6.049179  14043160.7466
6.049179  6.087430  13977842.1672
6.087430  6.107096  13914461.0582
6.107096  6.146139  13853076.3268
6.146139  6.166224  13793750.7616
6.166224  6.203544  13736551.3157
6.203544  6.222908  13681549.4529
6.222908  6.258017  13628821.5457
6.258017  6.283840  13578449.3116
6.283840  6.316702  13530520.2813
6.316702  6.342921  13485128.2900
6.342921  6.369849  13442373.9953
6.369849  6.402898  13402365.4250
6.402898  6.433515  13365218.5714
6.433515  6.457580  13331058.0441
6.457580  6.485788  13300017.8024
6.485788  6.519338  13272241.9735
6.519338  6.548407  13247885.7581
6.548407  6.573019  13227116.3994
6.573019  6.606034  13210114.1691
6.606034  6.630832  13197073.2968
6.630832  6.661472  13188202.7408
6.661472  6.692811  13183726.6838
6.692811  6.718098  13183884.6388
6.718098  6.749669  13188931.0683
6.749669  6.778727  13199134.4754
6.778727  6.807633  13214775.9932
6.807633  6.835900  13236147.5876
6.835900  6.866563  13263550.0730
6.866563  6.894131  13297291.2010
6.894131  6.923503  13337684.0980
6.923503  6.953201  13385046.2781
6.953201  6.981386  13439699.3423
6.981386  7.025153  13501969.2851
7.025153  7.049707  13572187.0959
7.049707  7.082244  13650689.0778
7.082244  7.106868  13737816.0434
7.106868  7.141057  13833910.3195
7.141057  7.164064  13939309.3202
7.164064  7.198777  14054334.3752
7.198777  7.222807  14179273.5658
7.222807  7.255868  14314357.5885
7.255868  7.279806  14459728.2059
7.279806  7.314705  14615399.7188
7.314705  7.337060  14781215.1377
7.337060  7.372308  14956800.2721
7.372308  7.395734  15141520.6364
7.395734  7.429434  15334447.5579
7.429434  7.452697  15534340.7537
7.452697  7.488341  15739654.4562
7.488341  7.510102  15948572.5672
7.510102  7.548248  16159075.1953
7.548248  7.569847  16369034.5515
7.569847  7.603268  16576333.2092
7.603268  7.625821  16778993.1581
7.625821  7.647535  16975300.9732
7.647535  7.662570  17163913.6798
7.662570  7.667970  17343931.9242
7.667970  7.676989  17514931.6465
7.676989  7.683052  17676951.7045
7.683052  7.695608  17830441.5369
7.695608  7.698517  17976178.5532
7.698517  7.710945  18115168.4105
7.710945  7.716764  18248542.1079
7.716764  7.726504  18377462.0533
7.726504  7.732951  18503045.6338
7.732951  7.745624  18626310.4075
7.745624  7.748382  18748140.8894
7.748382  7.759937  18869273.8286
7.759937  7.765255  18990297.2286
7.765255  7.774239  19111658.0865
7.774239  7.780360  19233674.5122
7.780360  7.792998  19356549.0241
7.792998  7.795907  19480380.9387
7.795907  7.808359  19605176.6249
7.808359  7.814049  19730856.9701
7.814049  7.823499  19857261.8856
7.823499  7.829643  19984152.2916
7.829643  7.841676  20111210.9095
7.841676  7.844352  20238044.2592
7.844352  7.855745  20364189.1739
7.855745  7.861016  20489127.4100
7.861016  7.870035  20612311.0881
7.870035  7.876203  20733199.6045
7.876203  7.888887  20851305.5998
7.888887  7.891761  20966244.3654
7.891761  7.898462  21077778.7474
7.898462  7.904039  21185851.1149
7.904039  7.909444  21290595.7092
7.909444  7.909554  21392328.3605
7.909554  7.918573  21491515.1475
7.918573  7.920396  21588725.7429
7.920396  7.924473  21684579.7625
7.924473  7.931320  21779694.8177
7.931320  7.938659  21874643.3198
7.938659  7.938787  21969922.1447
7.938787  7.942216  22065936.0370
7.942216  7.953083  22162992.9796
7.953083  7.957860  22261308.1786
7.957860  7.957999  22361012.9145
7.957999  7.963921  22462165.1064
7.963921  7.974731  22564759.6737
7.974731  7.977829  22668738.2486
7.977829  7.978609  22773999.0455
7.978609  7.985514  22880408.3068
7.985514  7.996268  22987814.4716
7.996268  7.999311  23096065.0620
7.999311  8.001766  23205024.6660
8.001766  8.006994  23314590.9568
8.006994  8.017693  23424705.1059
8.017693  8.020548  23535353.6290
8.020548  8.020676  23646560.5731
8.020676  8.028365  23758371.5060
8.028365  8.039009  23870833.1951
8.039009  8.039936  23983974.3588
8.039936  8.042019  24097792.8597
8.042019  8.049626  24212253.0269
8.049626  8.060215  24327293.8138
8.060215  8.062523  24442845.0698
8.062523  8.062965  24558846.4530
8.062965  8.070778  24675262.4621
8.070778  8.081314  24792088.2463
8.081314  8.082457  24909343.9977
8.082457  8.082539  25027059.8568
8.082539  8.091824  25145256.9363
8.091824  8.101961  25263931.9571
8.101961  8.102307  25383052.3094
8.102307  8.104416  25502565.1474
8.104416  8.112764  25622419.2700
8.112764  8.123024  25742593.5091
8.123024  8.123194  25863121.8613
8.123194  8.123990  25984105.0807
8.123990  8.133598  26105701.5278
8.133598  8.142085  26228096.1482
8.142085  8.142120  26351453.7408
8.142120  8.143977  26475868.6851
8.143977  8.154330  26601325.7946
8.154330  8.162345  26727684.9746
8.162345  8.164657  26854696.6176
8.164657  8.165441  26982047.0126
8.165441  8.174958  27109425.4175
8.174958  8.184107  27236598.1814
8.184107  8.185234  27363471.6172
8.185234  8.185503  27490125.7660
8.185503  8.195485  27616807.2414
8.195485  8.202121  27743880.7587
8.202121  8.202191  27871752.6589
8.202191  8.205711  28000790.4192
8.205711  8.215912  28131264.8530
8.215912  8.221066  28263334.5250
8.221066  8.224604  28397076.9005
8.224604  8.226089  28532552.4355
8.226089  8.236240  28669871.4398
8.236240  8.243025  28809225.0690
8.243025  8.245038  28950848.3821
8.245038  8.246367  29094909.8627
8.246367  8.256470  29241362.4546
8.256470  8.262133  29389825.2962
8.262133  8.266548  29539566.8659
8.266548  8.276603  29689618.8784
8.276603  8.280601  29838985.9330
8.280601  8.284418  29986868.6316
8.284418  8.286633  30132817.6519
8.286633  8.296640  30276779.0729
8.296640  8.301012  30419043.9580
8.301012  8.303398  30560144.0523
8.303398  8.306623  30700731.1016
8.306623  8.316582  30841456.2138
8.316582  8.319469  30982852.1607
8.319469  8.322250  31125228.0446
8.322250  8.326518  31268603.8937
8.326518  8.336431  31412719.1401
8.336431  8.341742  31557126.1116
8.341742  8.343604  31701337.4305
8.343604  8.346321  31844968.4004
8.346321  8.356188  31987827.0951
8.356188  8.359954  32129943.8394
8.359954  8.362700  32271560.6780
8.362700  8.366032  32413097.2271
8.366032  8.375853  32555085.6055
8.375853  8.377246  32698058.4188
8.377246  8.380214  32842400.9448
8.380214  8.385652  32988224.6546
8.385652  8.395428  33135336.2285
8.395428  8.398496  33283331.0401
8.398496  8.400404  33431760.4437
8.400404  8.405182  33580279.9285
8.405182  8.414914  33728717.6576
8.414914  8.416661  33877070.0586
8.416661  8.420059  34025467.7762
8.420059  8.424624  34174142.1102
8.424624  8.434312  34323385.4438
8.434312  8.435012  34473473.6243
8.435012  8.438492  34624534.6746
8.438492  8.443978  34776414.5545
8.443978  8.453623  34928649.1185
8.453623  8.456099  35080612.1399
8.456099  8.457996  35231778.6635
8.457996  8.463246  35381952.4231
8.463246  8.472484  35531348.2463
8.472484  8.472848  35680529.2764
8.472848  8.476173  35830263.4934
8.476173  8.482429  35981367.9634
8.482429  8.490021  36134578.4507
8.490021  8.491989  36290420.5246
8.491989  8.494222  36449030.4357
8.494222  8.501528  36609978.6096
8.501528  8.511046  36772288.9429
8.511046  8.512969  36934760.8430
8.512969  8.514714  37096398.4924
8.514714  8.520544  37256630.2162
8.520544  8.530021  37415257.2988
8.530021  8.531507  37572342.3722
8.531507  8.533275  37728181.3688
8.533275  8.539477  37883308.0988
8.539477  8.548124  38038466.2003
8.548124  8.548914  38194517.2436
8.548914  8.550196  38352199.7647
8.550196  8.558331  38511776.9182
8.558331  8.567593  38672912.6362
8.567593  8.567727  38835007.1644
8.567727  8.569246  38997630.8164
8.569246  8.577104  39160555.4253
8.577104  8.586049  39323545.7817
8.586049  8.586461  39486425.2772
8.586461  8.587935  39649327.3800
8.587935  8.595799  39812633.0949
8.595799  8.603807  39976682.5294
8.603807  8.605117  40141744.7848
8.605117  8.606018  40308077.4891
8.606018  8.614416  40475585.3853
8.614416  8.623369  40643499.1396
8.623369  8.623696  40810881.5549
8.623696  8.624987  40977511.0203
8.624987  8.632957  41143978.6610
8.632957  8.640639  41311178.1180
8.640639  8.642199  41480267.4005
8.642199  8.642268  41652791.5166
8.642268  8.651423  41829859.8648
8.651423  8.660627  42011224.4526
8.660627  8.661481  42196148.2738
8.661481  8.663913  42385120.2361
8.663913  8.669814  42579264.1542
8.669814  8.678982  42777525.0691
8.678982  8.686302  42975965.0858
8.686302  8.688129  43171226.1535
8.688129  8.688132  43363827.1762
8.688132  8.697264  43556497.4607
8.697264  8.706378  43749915.7783
8.706378  8.708704  43942150.9783
8.708704  8.710309  44132176.1284
8.710309  8.715475  44321495.2892
8.715475  8.724553  44511657.0010
8.724553  8.728545  44702644.9547
8.728545  8.730860  44895125.7572
8.730860  8.733615  45091772.3041
8.733615  8.742659  45293676.3790
8.742659  8.751685  45497147.5378
8.751685  8.752051  45697638.5968
8.752051  8.753844  45896260.5722
8.753844  8.760695  46098419.9182
8.760695  8.769688  46305516.8033
8.769688  8.774848  46512260.5610
8.774848  8.776512  46714138.7827
8.776512  8.778664  46913505.6125
8.778664  8.787623  47114696.9324
8.787623  8.795295  47316575.8357
8.795295  8.796566  47515569.8191
8.796566  8.797529  47714146.0499
8.797529  8.805492  47918956.1697
8.805492  8.814402  48130193.4014
8.814402  8.817580  48340389.2206
8.817580  8.819267  48546115.5242
8.819267  8.823296  48753477.7940
8.823296  8.832174  48967336.4450
8.832174  8.839120  49181617.3952
8.839120  8.840749  49388072.4665
8.840749  8.841037  49590392.5528
8.841037  8.849883  49799249.6297
8.849883  8.858714  50015083.8165
8.858714  8.859868  50228367.0039
8.859868  8.862301  50437828.5920
8.862301  8.867529  50653448.4829
8.867529  8.876329  50867206.6464
8.876329  8.882921  50986495.7895
8.882921  8.884539  50658370.1737
8.884539  8.885114  48938391.9487
8.885114  8.893884  44310617.1796
8.893884  8.903240  36032005.6083
8.903240  8.904764  25912319.2135
8.904764  8.922662  17418776.6214
8.922662  8.925012  12495346.3790
8.925012  8.945901  10505134.5997
8.945901  8.947646  9939962.7132
8.947646  8.967080  9831665.5176
8.967080  8.968570  9825596.2593
8.968570  8.985560  9836369.6349
8.985560  8.987736  9849807.4791
8.987736  9.007216  9864356.0488
9.007216  9.008892  9879831.6129
9.008892  9.028314  9896038.9952
9.028314  9.029885  9912836.3350
9.029885  9.047783  9930300.1634
9.047783  9.050017  9948724.1482
9.050017  9.068800  9968285.4490
9.068800  9.073827  9988678.2774
9.073827  9.088350  10009309.2262
9.088350  9.093435  10029871.3055
9.093435  9.107190  10050687.8971
9.107190  9.109413  10072737.3135
9.109413  9.129172  10096852.6141
9.129172  9.134176  10122515.7687
9.134176  9.148885  10148266.1103
9.148885  9.153296  10173222.3291
9.153296  9.166388  10197742.7877
9.166388  9.168401  10223330.0694
9.168401  9.187008  10251508.2400
9.187008  9.191698  10282107.5814
9.191698  9.207408  10313553.0594
9.207408  9.211760  10344559.7064
9.211760  9.225713  10374947.3867
9.225713  9.227784  10405857.6101
9.227784  9.245461  10438749.4850
9.245461  9.249360  10473455.0520
9.249360  9.264185  10508652.4842
9.264185  9.267955  10544018.6741
9.267955  9.282001  10580789.3071
9.282001  9.287494  10620432.8425
9.287494  9.306148  10661973.9381
9.306148  9.306637  10702271.6768
9.306637  9.321637  10740493.4000
9.321637  9.324884  10778501.5232
9.324884  9.338115  10818099.2652
9.338115  9.342886  10860827.5052
9.342886  9.360458  10906055.0966
9.360458  9.360970  10950822.2020
9.360970  9.376727  10994719.8151
9.376727  9.379834  11039602.4629
9.379834  9.394159  11086473.8637
9.394159  9.398674  11136097.8098
9.398674  9.415513  11187385.0300
9.415513  9.415943  11237774.3079
9.415943  9.433236  11287320.3229
9.433236  9.433632  11337053.8081
9.433632  9.450214  11387581.5669
9.450214  9.451308  11440022.0240
9.451308  9.468973  11494684.5424
9.468973  9.469450  11550707.7073
9.469450  9.487383  11607436.9958
9.487383  9.487779  11663588.8586
9.487779  9.503465  11718313.7492
9.503465  9.504490  11773272.4408
9.504490  9.520630  11829553.7302
9.520630  9.521072  11887286.1727
9.521072  9.538365  11947052.1414
9.538365  9.538749  12008014.0940
9.538749  9.555262  12069525.2251
9.555262  9.556356  12132574.4331
9.556356  9.573148  12196929.0384
9.573148  9.573613  12261186.9345
9.573613  9.589987  12324895.3391
9.589987  9.590347  12387676.8587
9.590347  9.605336  12449405.5399
9.605336  9.606337  12512679.7285
9.606337  9.622361  12578740.1096
9.622361  9.622838  12646776.8496
9.622838  9.639968  12717282.5474
9.639968  9.640363  12788343.8659
9.640363  9.656132  12858199.8607
9.656132  9.657167  12928475.9727
9.657167  9.672540  12998691.4667
9.672540  9.672982  13068313.6140
9.672982  9.688552  13138387.1526
9.688552  9.688890  13208506.1642
9.688890  9.703739  13278399.3815
9.703739  9.704786  13350632.6367
9.704786  9.720310  13425419.3292
9.720310  9.720775  13500723.8214
9.720775  9.736671  13577054.5481
9.736671  9.736997  13652964.8886
9.736997  9.751602  13727499.3757
9.751602  9.752789  13813312.7382
9.752789  9.776889  13926926.1658
9.776889  9.777541  14051438.5190
9.777541  9.802304  14179870.0925
9.802304  9.802944  14308970.0865
9.802944  9.825636  14434401.0295
9.825636  9.826882  14563089.6423
9.826882  9.851145  14698819.6766
9.851145  9.851785  14834292.8980
9.851785  9.873977  14964744.3793
9.873977  9.875187  15098522.6203
9.875187  9.898938  15239896.4039
9.898938  9.899555  15378577.0411
9.899555  9.918930  15503643.9836
9.918930  9.921304  15634338.9056
9.921304  9.942251  15776715.3893
9.942251  9.946370  15928474.0307
9.946370  9.965502  16074827.1041
9.965502  9.967666  16214432.7941
9.967666  9.988345  16362695.8174
9.988345  9.992244  16521131.7585
9.992244  10.011061  16673190.5732
10.011061  10.013027  16817618.8348
10.013027  10.033357  16971457.0805
10.033357  10.037058  17136564.7209
10.037058  10.055572  17294681.8145
10.055572  10.057364  17440955.4210
10.057364  10.077368  16671876.5234
10.077368  10.080848  10112613.4218
10.080848  10.099037  9184647.6650
10.099037  10.100666  9203347.9106
10.100666  10.120332  9228105.5972
10.120332  10.123614  9255303.2001
10.123614  10.141488  9281591.4204
10.141488  10.142955  9307219.9118
10.142955  10.167474  9340693.6628
10.167474  10.167823  9374711.9785
10.167823  10.191423  9408763.3332
10.191423  10.193238  9445808.2914
10.193238  10.218467  9486246.9374
10.218467  10.218816  9525964.4249
10.218816  10.241706  9563497.3838
10.241706  10.243475  9604067.5792
10.243475  10.267971  9648287.8102
10.267971  10.268320  9691495.4340
10.268320  10.290535  9732045.8888
10.290535  10.292258  9775821.8007
10.292258  10.316055  9823499.8156
10.316055  10.316404  9869897.1717
10.316404  10.337956  9913161.4825
10.337956  10.339644  9959851.9516
10.339644  10.362731  10010649.9088
10.362731  10.363092  10059931.9862
10.363092  10.383981  10105670.5498
10.383981  10.385633  10155022.3575
10.385633  10.408011  10208665.9807
10.408011  10.408349  10260527.3384
10.408349  10.428609  10308558.1550
10.428609  10.430203  10360398.6255
10.430203  10.451929  10416800.6695
10.451929  10.452278  10471318.9635
10.452278  10.471875  10521545.8054
10.471875  10.473434  10575746.3755
10.473434  10.494486  10634792.2520
10.494486  10.494823  10691770.6294
10.494823  10.513803  10744187.8251
10.513803  10.515339  10800833.3093
10.515339  10.535727  10862529.0443
10.535727  10.536076  10919822.5968
10.536076  10.554463  8580722.3425
10.554463  10.555941  8590400.4638
10.555941  10.575712  8604201.0453
10.575712  10.576050  8617713.5930
10.576050  10.593854  8630281.6560
10.593854  10.595297  8644013.3610
10.595297  10.614452  8659168.3251
10.614452  10.614801  8673946.5511
10.614801  10.632047  8687641.7087
10.632047  10.633443  8702535.5183
10.633443  10.651993  8718910.9972
10.651993  10.652330  8734839.5829
10.652330  10.669006  8749544.3396
10.669006  10.670309  8765457.9463
10.670309  10.698913  8792800.0676
10.698913  10.699751  8820807.1733
10.699751  10.725178  8846743.6610
10.725178  10.726912  8874554.8354
10.726912  10.754038  8905270.0528
10.754038  10.754852  8936223.9866
10.754852  10.778918  8964866.9105
10.778918  10.780570  8995626.0927
10.780570  10.806265  8224661.2974
10.806265  10.807056  8233350.7849
10.807056  10.829853  8241949.6821
10.829853  10.832983  8252444.7789
10.832983  10.856537  8264527.9325
10.856537  10.857235  8276784.2521
10.857235  10.878100  8288830.3008
10.878100  10.881068  8303558.8905
10.881068  10.903387  8321022.6775
10.903387  10.904039  8338747.9471
10.904039  10.923787  8356167.3305
10.923787  10.926603  8377506.8877
10.926603  10.948388  8403578.5686
10.948388  10.948981  8133275.3003
10.948981  10.968217  8150985.2006
10.968217  10.969730  8172274.9935
10.969730  10.990304  8198428.2381
10.990304  10.990898  8227303.1049
10.990898  11.009040  8256353.6454
11.009040  11.010471  8290616.7489
11.010471  11.029882  8332004.1280
11.029882  11.030452  8376984.9174
11.030452  11.047547  8421558.7106
11.047547  11.048908  8473462.5139
11.048908  11.067225  8535416.3906
11.067225  11.067772  8601894.0027
11.067772  11.083878  8666915.5529
11.083878  11.085111  8741515.3931
11.085111  11.107687  8856564.2508
11.107687  11.108478  8985196.3049
11.108478  11.128110  9111775.5904
11.128110  11.129564  9257704.0800
11.129564  11.150453  9430801.7515
11.150453  11.151198  9618102.9630
11.151198  11.169340  9798759.6212
11.169340  11.170713  10003375.5446
11.170713  11.190042  10241642.0463
11.190042  11.190729  10493861.2968
11.190729  11.207486  10732082.8856
11.207486  11.208789  10997483.0451
11.208789  11.226640  11300362.7250
11.226640  11.227281  11614201.6820
11.227281  11.242758  11905220.8126
11.242758  11.243968  11921489.5402
11.243968  11.260458  12265599.5955
11.260458  11.261063  12616416.9378
11.261063  11.275307  12935733.3103
11.275307  11.276435  12713339.7925
11.276435  11.291610  13069860.1143
11.291610  11.292180  13428730.8715
11.292180  11.305260  13751403.1565
11.305260  11.306319  12991257.1630
11.306319  11.320272  13322766.9151
11.320272  11.320819  13654620.7584
11.320819  11.332828  13951583.5972
11.332828  11.333817  12215598.5167
11.333817  11.346641  12476173.7740
11.346641  11.347130  12737269.2148
11.347130  11.358162  10530718.6570
11.358162  11.359081  10685595.5962
11.359081  11.370846  10858497.0135
11.370846  11.371324  9274246.2460
11.371324  11.381436  9368148.1519
11.381436  11.382286  8670585.9483
11.382286  11.393096  8753752.8003
11.393096  11.393574  8842333.1243
11.393574  11.402860  8564921.3636
11.402860  11.403640  8643371.0068
11.403640  11.413578  8575599.4642
11.413578  11.413985  8664819.7241
11.413985  11.422492  8748078.6789
