# RBHG Variable-Width Bremsstrahlung Distribution
# SOURCE: ../../../../hdsim_cobrems/BGRate_30891.root : dRtdkH1
# GENERATED: 2025-11-17 12:59:52
#
# ENERGY_LIMITS (GeV):
# E_MIN_AVAILABLE 2.908069
# E_MAX_AVAILABLE 11.409712
# TOTAL_BINS 649
# TOTAL_COUNTS 13709111067.85
#
# WARNING: User-set E_LO must be >= E_MIN_AVAILABLE
# WARNING: User-set E_HI must be <= E_MAX_AVAILABLE
#
# Format: lowEdge(GeV)  highEdge(GeV)  counts
2.908069  2.933479  21931276.9956
2.933479  2.966108  23242152.2423
2.966108  2.991541  24477452.7254
2.991541  3.024251  25622622.8549
3.024251  3.049684  26665289.2215
3.049684  3.082313  27595609.7938
3.082313  3.107746  28406510.6082
3.107746  3.140549  29093801.1771
3.140549  3.165924  29656167.4830
3.165924  3.198716  30095048.8451
3.198716  3.224033  30414411.5374
3.224033  3.256917  30620437.3350
3.256917  3.282199  30721148.8410
3.282199  3.315014  30725995.3231
3.315014  3.340273  30645422.8953
3.340273  3.373250  30490451.3647
3.373250  3.398439  30272277.2276
3.398439  3.431498  30001918.5000
3.431498  3.456652  29689912.7245
3.456652  3.489746  29346074.9993
3.489746  3.514877  28979318.5826
3.514877  3.548028  28597536.8235
3.548028  3.573136  28207542.0603
3.573136  3.604591  27815054.8065
3.604591  3.628722  27424735.0529
3.628722  3.662932  27040246.7912
3.662932  3.686935  26664346.8183
3.686935  3.721214  26298989.3741
3.721214  3.745125  25945439.0512
3.745125  3.779334  25604385.5493
3.779334  3.803187  25276055.0922
3.803187  3.837617  24960314.5839
3.837617  3.861446  24656765.7538
3.861446  3.895818  24364827.5933
3.895818  3.919543  24083806.2728
3.919543  3.954206  23812952.4461
3.954206  3.977861  23551506.4078
3.977861  4.012558  23298731.9722
4.012558  4.036132  23053940.2272
4.036132  4.070911  22816504.4869
4.070911  4.094403  22585867.8573
4.094403  4.171110  22361544.8465
4.171110  4.195311  22143118.4148
4.195311  4.229218  21930233.7765
4.229218  4.253326  21722590.1437
4.253326  4.287373  21519931.4565
4.287373  4.311400  21322036.9681
4.311400  4.345574  21128712.3734
4.345574  4.369496  20939781.9780
4.369496  4.403067  20755082.2257
4.403067  4.426442  20574456.7310
4.426442  4.461268  20397752.8233
4.461268  4.484562  20224819.4903
4.484562  4.519946  20055506.5271
4.519946  4.543554  19889664.6469
4.543554  4.577985  19727146.2880
4.577985  4.601465  19567806.8594
4.601465  4.635988  19411506.1919
4.635988  4.659364  19258110.0012
4.659364  4.694039  19107491.2142
4.694039  4.717298  18959531.0592
4.717298  4.750833  18814119.8601
4.750833  4.773128  18671157.5157
4.773128  4.808733  18530553.6725
4.808733  4.831260  18392227.6217
4.831260  4.868701  18256107.9648
4.868701  4.890868  18122132.0988
4.890868  4.925624  17990245.5743
4.925624  4.947883  17860401.3773
4.947883  4.984046  17732559.1795
4.984046  5.007387  17606684.5958
5.007387  5.041759  17482748.4768
5.041759  5.062670  17360726.2573
5.062670  5.100948  17240597.3706
5.100948  5.123662  17122344.7325
5.123662  5.156976  17005954.2887
5.156976  5.178922  16891414.6170
5.178922  5.217060  16778716.5708
5.217060  5.238518  16667852.9505
5.238518  5.273820  16558818.1904
5.273820  5.295418  16451608.0532
5.295418  5.332278  16346219.3312
5.332278  5.354875  16242649.5571
5.354875  5.389933  16140896.7394
5.389933  5.410170  16040959.1395
5.410170  5.447960  15942835.1143
5.447960  5.469243  15846523.0497
5.469243  5.505301  15752021.4055
5.505301  5.526515  15659328.8884
5.526515  5.564304  15568444.7563
5.564304  5.584204  15479369.2491
5.584204  5.616984  15392104.1220
5.616984  5.639093  15306653.2504
5.639093  5.674395  15223023.2640
5.674395  5.695958  15141224.1643
5.695958  5.733364  15061269.8825
5.733364  5.753741  14983178.7403
5.753741  5.790682  14906973.7901
5.790682  5.812488  14832683.0225
5.812488  5.848883  14760339.4470
5.848883  5.869562  14689981.0621
5.869562  5.907108  14621650.7410
5.907108  5.927089  14555396.0664
5.927089  5.964356  14491269.1466
5.964356  5.985721  14429326.4429
5.985721  6.021755  14369628.6344
6.021755  6.042411  14312240.5381
6.042411  6.080619  14257231.0963
6.080619  6.100264  14204673.4368
6.100264  6.139262  14154645.0080
6.139262  6.159325  14107227.7850
6.159325  6.196603  14062508.5427
6.196603  6.215946  14020579.1910
6.215946  6.251015  13981537.1645
6.251015  6.276809  13945485.8633
6.276809  6.309635  13912535.1423
6.309635  6.335824  13882801.8477
6.335824  6.362722  13856410.4061
6.362722  6.395734  13833493.4708
6.395734  6.426317  13814192.6352
6.426317  6.450355  13798659.2196
6.450355  6.478532  13787055.1348
6.478532  6.512044  13779553.8147
6.512044  6.541081  13776341.1948
6.541081  6.565665  13777616.6891
6.565665  6.598643  13783594.0937
6.598643  6.623413  13794502.3152
6.623413  6.654019  13810585.8007
6.654019  6.685323  13832104.5373
6.685323  6.710582  13859333.4979
6.710582  6.742118  13892561.4520
6.742118  6.771143  13932089.1281
6.771143  6.800017  13978226.8066
6.800017  6.828251  14031291.5302
6.828251  6.858881  14091604.2119
6.858881  6.886418  14159486.9814
6.886418  6.915757  14235261.1044
6.915757  6.945421  14319245.7292
6.945421  6.973575  14411757.5420
6.973575  7.017293  14513111.1672
7.017293  7.041819  14623619.8549
7.041819  7.074320  14743595.6898
7.074320  7.098916  14873348.2726
7.098916  7.133068  15013180.6162
7.133068  7.156048  15163380.8860
7.156048  7.190723  15324208.6423
7.190723  7.214726  15495874.4513
7.214726  7.247750  15678512.1546
7.247750  7.271661  15872143.7912
7.271661  7.306521  16076638.1669
7.306521  7.328851  16291665.3685
7.328851  7.364060  16516651.0334
7.364060  7.387459  16750735.7095
7.387459  7.421122  16992745.8707
7.421122  7.444358  17241183.6964
7.444358  7.479963  17494242.1768
7.479963  7.501700  17749850.2074
7.501700  7.539803  18005749.0440
7.539803  7.561377  18259597.1257
7.561377  7.594761  18509095.5034
7.594761  7.617289  18752121.8738
7.617289  7.638979  18986858.4928
7.638979  7.653997  19211898.8271
7.653997  7.659391  19426320.0140
7.659391  7.668399  19629712.7847
7.668399  7.674455  19822166.6220
7.674455  7.686998  20004214.3340
7.686998  7.689904  20176745.6469
7.689904  7.702318  20340902.8078
7.702318  7.708130  20497972.0368
7.708130  7.717859  20649283.0888
7.717859  7.724299  20796125.8190
7.724299  7.736958  20939688.4639
7.736958  7.739713  21081018.3304
7.739713  7.751255  21221002.4902
7.751255  7.756567  21360364.2821
7.756567  7.765541  21499670.9008
7.765541  7.771655  21639347.7601
7.771655  7.784279  21779696.1817
7.784279  7.787185  21920911.8373
7.787185  7.799623  22063101.9869
7.799623  7.805307  22206299.8712
7.805307  7.814745  22350474.7895
7.814745  7.820883  22495536.7233
7.820883  7.832902  22641335.0986
7.832902  7.835576  22787652.5414
7.835576  7.846956  22934196.1185
7.846956  7.852221  23080590.1647
7.852221  7.861230  23226375.7909
7.861230  7.867391  23371021.9646
7.867391  7.880061  23513951.3511
7.880061  7.882932  23654581.0283
7.882932  7.895195  23792374.3882
7.895195  7.900705  23926897.0449
7.900705  7.909117  24057867.4534
7.909117  7.909714  24185192.9744
7.909714  7.915607  24308984.4358
7.915607  7.920015  24429546.2929
7.920015  7.929777  24547344.1926
7.929777  7.929904  24662955.8536
7.929904  7.930884  24777013.6817
7.930884  7.941727  24890147.9799
7.941727  7.948956  25002938.1552
7.948956  7.949096  25115876.6660
7.949096  7.952543  25229347.4999
7.952543  7.963332  25343618.5487
7.963332  7.968903  25458845.7896
7.968903  7.969682  25575086.6828
7.969682  7.974095  25692320.2688
7.974095  7.984831  25810471.5963
7.984831  7.990361  25929438.0041
7.990361  7.992814  26049114.4013
7.992814  7.995540  26169414.3659
7.995540  8.006223  26290284.0308
8.006223  8.011575  26411706.6758
8.011575  8.011703  26533697.6651
8.011703  8.016881  26656291.5088
8.016881  8.027512  26779524.7732
8.027512  8.030940  26903419.6815
8.030940  8.033021  27027973.0805
8.033021  8.038117  27153153.9172
8.038117  8.048696  27278909.8040
8.048696  8.053502  27405180.3993
8.053502  8.053944  27531913.1091
8.053944  8.059250  27659075.8172
8.059250  8.069778  27786662.3248
8.069778  8.073414  27914688.6551
8.073414  8.073496  28043181.5223
8.073496  8.080281  28172163.0294
8.080281  8.090759  28301637.1137
8.090759  8.092896  28431582.9615
8.092896  8.095349  28561958.6682
8.095349  8.101211  28692715.3655
8.101211  8.111639  28823818.6492
8.111639  8.113936  28955271.2347
8.113936  8.114900  29087129.1755
8.114900  8.122041  29219504.4390
8.122041  8.132419  29352549.5556
8.132419  8.132976  29486425.1457
8.132976  8.133011  29621257.0617
8.133011  8.142773  29757094.5551
8.142773  8.153102  29893882.3145
8.153102  8.153213  30031456.5723
8.153213  8.156305  30169569.5285
8.156305  8.163406  30307938.9196
8.163406  8.173687  30446312.6410
8.173687  8.174950  30584533.4383
8.174950  8.176345  30722586.9970
8.176345  8.183943  30860619.2941
8.183943  8.192944  30998916.3269
8.192944  8.193014  31137850.3412
8.193014  8.194176  31277808.3581
8.194176  8.204385  31419126.4827
8.204385  8.211868  31562052.9445
8.211868  8.214570  31706752.5717
8.214570  8.215401  31853347.9533
8.215401  8.224731  32001973.8211
8.224731  8.233802  32152809.3028
8.233802  8.234869  32306055.7452
8.234869  8.235813  32461849.8724
8.235813  8.244984  32620137.5634
8.244984  8.252889  32780565.1740
8.252889  8.255076  32942451.4335
8.255076  8.265145  33104873.1904
8.265145  8.271336  33266845.4395
8.271336  8.275149  33427530.9124
8.275149  8.275190  33586404.3221
8.275190  8.285213  33743324.2880
8.285213  8.291725  33898509.8038
8.291725  8.294108  34052449.5160
8.294108  8.295214  34205778.3103
8.295214  8.305192  34359145.2315
8.305192  8.310160  34513087.1303
8.310160  8.312938  34667924.0401
8.312938  8.315148  34823700.4625
8.315148  8.325081  34980196.5128
8.325081  8.332409  35137013.3629
8.332409  8.334269  35293705.7416
8.334269  8.334992  35449913.5561
8.334992  8.344882  35605452.6092
8.344882  8.350600  35760352.7957
8.350600  8.353343  35914854.2839
8.353343  8.354749  36069371.3551
8.354749  8.364595  36224420.4336
8.364595  8.367873  36380507.9429
8.367873  8.370838  36537996.3029
8.370838  8.374419  36696997.0184
8.374419  8.384222  36857346.6368
8.384222  8.389099  37018685.5621
8.389099  8.391005  37180600.8456
8.391005  8.394004  37342760.1614
8.394004  8.403764  37504984.3996
8.403764  8.407244  37667257.2426
8.407244  8.410638  37829701.9821
8.410638  8.413503  37992547.2545
8.413503  8.423222  38156075.8612
8.423222  8.425575  38320538.1050
8.425575  8.429051  38486031.3928
8.429051  8.432919  38652393.9896
8.432919  8.442596  38819193.1459
8.442596  8.446638  38985855.9939
8.446638  8.448532  39151897.9909
8.448532  8.452253  39317128.0488
8.452253  8.461889  39481727.7078
8.461889  8.463004  39646193.8992
8.463004  8.466689  39811213.6492
8.466689  8.471505  39977546.9906
8.471505  8.480522  40145936.8436
8.480522  8.481100  40316992.4685
8.481100  8.484718  40490992.0784
8.484718  8.490676  40667668.6071
8.490676  8.500232  40846168.3754
8.500232  8.503444  41025303.9761
8.503444  8.505188  41203967.4093
8.505188  8.509768  41381420.3677
8.509768  8.519284  41557330.8102
8.519284  8.521961  41731676.5727
8.521961  8.523728  41904685.6240
8.523728  8.528781  42076848.5346
8.528781  8.538259  42248931.1943
8.538259  8.538560  42421885.0885
8.538560  8.540629  42596578.1861
8.540629  8.547717  42773433.0466
8.547717  8.557156  42952265.9439
8.557156  8.558007  43132512.6732
8.558007  8.559658  43313607.0431
8.559658  8.566577  43495141.5630
8.566577  8.575978  43676825.7819
8.575978  8.576443  43858520.4487
8.576443  8.578326  44040341.1081
8.578326  8.585361  44222598.9898
8.585361  8.594181  44405641.0053
8.594181  8.594725  44589820.6559
8.594725  8.596390  44775449.3679
8.596390  8.604071  44962473.2562
8.604071  8.613398  45150237.1366
8.613398  8.613721  45337885.2024
8.613721  8.615337  45525075.4087
8.615337  8.622708  45712201.0818
8.622708  8.630971  45900160.2975
8.630971  8.631999  46090287.5927
8.631999  8.632598  46284231.7004
8.632598  8.641272  46483181.8481
8.641272  8.650528  46687169.3805
8.650528  8.651790  46895719.6783
8.651790  8.654219  47109070.1270
8.654219  8.659766  47327701.9556
8.659766  8.668986  47550328.0727
8.668986  8.676584  47773513.3829
8.676584  8.678189  47994373.9044
8.678189  8.678409  48213087.5731
8.678409  8.687375  48431642.4851
8.687375  8.696543  48650595.6146
8.696543  8.698960  48868554.5673
8.698960  8.700564  49084742.6557
8.700564  8.705695  49300302.5405
8.705695  8.714829  49516632.9432
8.714829  8.718779  49734258.8343
8.718779  8.721092  49954267.0224
8.721092  8.723947  50178844.9493
8.723947  8.733048  50408388.5771
8.733048  8.742133  50639482.1770
8.742133  8.742259  50868476.4423
8.742259  8.744049  51096516.5406
8.744049  8.751202  51327980.4240
8.751202  8.760254  51563759.5239
8.760254  8.765031  51799459.8670
8.765031  8.766693  52031510.3517
8.766693  8.769290  52261700.1183
8.769290  8.778310  52493116.3020
8.778310  8.785454  52724455.1396
8.785454  8.787314  52951291.3505
8.787314  8.787686  53164470.7246
8.787686  8.796303  53316712.6181
8.796303  8.805276  53223525.1845
8.805276  8.807714  52392217.4013
8.807714  8.809400  49916200.8050
8.809400  8.814233  44808603.5149
8.814233  8.823175  36949693.7027
8.823175  8.829230  27815149.0403
8.829230  8.830857  19767207.5401
8.830857  8.832102  14366134.2133
8.832102  8.841014  11581140.1319
8.841014  8.849911  10464777.3221
8.849911  8.849956  10113264.1533
8.849956  8.852385  10027286.6013
8.852385  8.858793  10013770.4565
8.858793  8.867661  10016319.3904
8.867661  8.872983  10021718.9109
8.872983  8.874599  10027367.2564
8.874599  8.876514  10033067.4023
8.876514  8.885352  10039032.0772
8.885352  8.893278  10045168.1467
8.893278  8.894177  10051256.4816
8.894177  8.894801  10057592.0924
8.894801  8.902987  10065050.0027
8.902987  8.912679  10074484.7804
8.912679  8.915027  10086292.3405
8.915027  8.935892  10100359.3743
8.935892  8.937635  10116132.6353
8.937635  8.957048  10132882.1786
8.957048  8.958535  10150115.6187
8.958535  8.975506  10167808.5450
8.975506  8.977680  10186270.5538
8.977680  8.997139  10205767.5251
8.997139  8.998813  10226274.8030
8.998813  9.018213  10247568.7829
9.018213  9.019782  10269478.8766
9.019782  9.037660  10292094.3901
9.037660  9.039892  10315742.1808
9.039892  9.058653  10340598.4094
9.058653  9.063675  10366297.9111
9.063675  9.078181  10392162.3287
9.078181  9.083261  10417848.1494
9.083261  9.097001  10443755.8975
9.097001  9.099221  10470995.1300
9.099221  9.118958  10500448.7867
9.118958  9.123957  10531526.8451
9.123957  9.138649  10562618.0297
9.138649  9.143055  10592727.4142
9.143055  9.156132  10622275.1230
9.156132  9.158143  10652939.0430
9.158143  9.176730  10686354.0294
9.176730  9.181414  10722341.5584
9.181414  9.197106  10759202.7643
9.197106  9.201454  10795501.3704
9.201454  9.215391  10831045.9199
9.215391  9.217460  10867072.0280
9.217460  9.235117  10905092.6047
9.235117  9.239011  10944956.6490
9.239011  9.253820  10985329.7824
9.253820  9.257586  11025878.2726
9.257586  9.271616  11067891.4913
9.271616  9.277103  11112810.7346
9.277103  9.295736  11159554.0714
9.295736  9.296224  11204951.3533
9.296224  9.311208  11248103.2880
9.311208  9.314451  11290882.6296
9.314451  9.327667  11335291.8558
9.327667  9.332433  11382887.0706
9.332433  9.349985  11432944.7765
9.349985  9.350497  11482556.2198
9.350497  9.366236  11531237.1307
9.366236  9.369339  11580797.9498
9.369339  9.383648  11632417.2095
9.383648  9.388158  11686844.4375
9.388158  9.404978  11742905.5017
9.404978  9.405408  11798067.8768
9.405408  9.422682  11852254.4962
9.422682  9.423077  11906498.9502
9.423077  9.439641  11961533.6930
9.439641  9.440734  12018486.7337
9.440734  9.458379  12077669.0865
9.458379  9.458856  12138240.4669
9.458856  9.476768  12199436.1218
9.476768  9.477163  12259933.1431
9.477163  9.492833  12318955.8033
9.492833  9.493856  12378103.7452
9.493856  9.509978  12438534.6365
9.509978  9.510420  12500480.9472
9.510420  9.527693  12564448.9870
9.527693  9.528077  12629635.6148
9.528077  9.544571  12695433.3500
9.544571  9.545664  12762739.8853
9.545664  9.562437  12831318.8029
9.562437  9.562902  12899792.1211
9.562902  9.579257  12967632.7412
9.579257  9.579617  13034439.6223
9.579617  9.594589  13100224.9453
9.594589  9.595589  13167545.4282
9.595589  9.611595  13237689.2514
9.611595  9.612072  13309986.2575
9.612072  9.629182  13384761.2009
9.629182  9.629577  13460107.8207
9.629577  9.645328  13534325.4540
9.645328  9.646362  13608864.4742
9.646362  9.661718  13683335.7306
9.661718  9.662159  13757246.8547
9.662159  9.677712  13831572.0096
9.677712  9.678049  13905947.7237
9.678049  9.692882  13980218.7333
9.692882  9.693928  14056887.5106
9.693928  9.709434  14136190.7223
9.709434  9.709899  14216189.9148
9.709899  9.725778  14297223.3095
9.725778  9.726103  14377830.3935
9.726103  9.740691  14457445.5428
9.740691  9.741877  14549374.1236
9.741877  9.765950  14669593.5344
9.765950  9.766601  14802092.2246
9.766601  9.791337  14938972.5943
9.791337  9.791976  15076638.7445
9.791976  9.814643  15210967.2652
9.814643  9.815887  15348832.5728
9.815887  9.840123  15494074.1882
9.840123  9.840762  15639320.4255
9.840762  9.862929  15779823.6943
9.862929  9.864138  15923976.2542
9.864138  9.887863  16076129.1313
9.887863  9.888479  16225491.2213
9.888479  9.907833  16361426.8126
9.907833  9.910204  16503088.8488
9.910204  9.931127  16657551.8533
9.931127  9.935242  16822037.2840
9.935242  9.954352  16981325.2966
9.954352  9.956514  17134020.4267
9.956514  9.977170  17296019.7637
9.977170  9.981064  17468909.8908
9.981064  9.999860  17635546.2255
9.999860  10.001824  17794585.4229
10.001824  10.022131  17951275.6766
10.022131  10.025828  16878179.0412
10.025828  10.044322  10559212.6333
10.044322  10.046112  9307581.2902
10.046112  10.066093  9317063.8301
10.066093  10.069569  9342891.9283
10.069569  10.087737  9368043.1762
10.087737  10.089365  9392242.5773
10.089365  10.109009  9418510.4454
10.109009  10.112287  9447198.6684
10.112287  10.130142  9474934.6031
10.130142  10.131606  9502130.0357
10.131606  10.156098  9537108.8991
10.156098  10.156447  9572779.8604
10.156447  10.180020  9608481.9282
10.180020  10.181834  9647198.8074
10.181834  10.207034  9689312.8437
10.207034  10.207383  9730686.6964
10.207383  10.230248  9769881.5947
10.230248  10.232014  9812116.3664
10.232014  10.256483  9858042.5620
10.256483  10.256832  9902970.2193
10.256832  10.279022  9945261.9063
10.279022  10.280742  9990822.2388
10.280742  10.304513  10040379.3125
10.304513  10.304862  10088693.4548
10.304862  10.326390  10133892.2531
10.326390  10.328075  10182611.1393
10.328075  10.351137  10235602.1356
10.351137  10.351497  10287131.6433
10.351497  10.372363  10335100.1493
10.372363  10.374013  10386830.1044
10.374013  10.396366  10443101.2675
10.396366  10.396703  10497635.9466
10.396703  10.416941  10548291.7863
10.416941  10.418533  10602978.5323
10.418533  10.440235  10662535.3697
10.440235  10.440584  10720241.3570
10.440584  10.460159  10773548.5018
10.460159  10.461716  10831119.6721
10.461716  10.482744  10893927.5070
10.482744  10.483081  10954680.5319
10.483081  10.502040  11010706.7936
10.502040  10.503574  11062750.0375
10.503574  10.523940  8654082.3951
10.523940  10.524288  8656303.7596
10.524288  10.542654  8667856.8379
10.542654  10.544130  8680518.0715
10.544130  10.563880  8694540.8579
10.563880  10.564217  8708268.4644
10.564217  10.582001  8721038.6107
10.582001  10.583443  8734996.3378
10.583443  10.602576  8750401.2102
10.602576  10.602925  8765441.4542
10.602925  10.620151  8779392.5737
10.620151  10.621546  8794581.2384
10.621546  10.640075  8811303.2748
10.640075  10.640412  8827591.6365
10.640412  10.657069  8842649.0440
10.657069  10.658371  8858969.5778
10.658371  10.686943  8887076.0221
10.686943  10.687780  8915943.2473
10.687780  10.713178  8942743.8686
10.713178  10.714910  8971551.6238
10.714910  10.742006  9003445.4654
10.742006  10.742819  9035660.4733
10.742819  10.766858  9065526.2546
10.766858  10.768508  9097654.1290
10.768508  10.794174  8278335.3512
10.794174  10.794965  8286574.8355
10.794965  10.817736  8294682.2057
10.817736  10.820863  8304513.6378
10.820863  10.844390  8315746.3030
10.844390  10.845087  8327046.9423
10.845087  10.865929  8338064.8132
10.865929  10.868893  8351420.8780
10.868893  10.891188  8367100.7804
10.891188  10.891839  8382852.5199
10.891839  10.911565  8398183.6085
10.911565  10.914378  8416779.3948
10.914378  10.936138  8439246.7282
10.936138  10.936731  8151613.5611
10.936731  10.955945  8164680.5100
10.955945  10.957457  8180350.6469
10.957457  10.978008  8199543.9377
10.978008  10.978601  8220666.8310
10.978601  10.996722  8241853.4432
10.996722  10.998152  8266767.9414
10.998152  11.017541  8296771.4102
11.017541  11.018111  8329284.9233
11.018111  11.035186  8361423.9307
11.035186  11.036546  8398762.0431
11.036546  11.054842  8443243.4939
11.054842  11.055389  8490886.2185
11.055389  11.071476  8537424.3502
11.071476  11.072709  8590776.9066
11.072709  11.095259  8673006.6498
11.095259  11.096050  8764972.4616
11.096050  11.115659  8855560.2977
11.115659  11.117112  8960176.6496
11.117112  11.137977  9084611.8217
11.137977  11.138721  9219778.8676
11.138721  11.156843  9350734.3069
11.156843  11.158215  9499823.8117
11.158215  11.177522  9674534.1035
11.177522  11.178208  9860901.9897
11.178208  11.194947  10038304.8962
11.194947  11.196248  10237610.7117
11.196248  11.214080  10467250.4140
11.214080  11.214719  10707753.0663
11.214719  11.230179  10933111.3150
11.230179  11.231388  11182453.2111
11.231388  11.247859  11465249.2356
11.247859  11.248463  11756815.3351
11.248463  11.262691  12025102.7826
11.262691  11.263819  12027327.1025
11.263819  11.278976  12342141.6669
11.278976  11.279546  12662487.6954
11.279546  11.292611  12953309.2339
11.292611  11.293669  13267510.5883
11.293669  11.307606  13045073.4214
11.307606  11.308153  13372297.3619
11.308153  11.320149  13666788.5942
11.320149  11.321137  13982767.1882
11.321137  11.333946  13218425.1701
11.333946  11.334435  13521564.3038
11.334435  11.345454  13793410.8336
11.345454  11.346372  12108121.6064
11.346372  11.358124  12345556.9249
11.358124  11.358601  12584214.0835
11.358601  11.368702  12798731.9322
11.368702  11.369551  10594190.1295
11.369551  11.380349  10748713.1020
11.380349  11.380826  10906108.7047
11.380826  11.390102  9304509.4595
11.390102  11.390881  9392416.1501
11.390881  11.400808  9492457.3259
11.400808  11.401214  8766667.4276
11.401214  11.409712  8831920.9408
